Channel              :,CH1
Frequency            :,1.401KHz
Period               :,0.714ms
PK-PK                :,1.033V
Probe attenuation    :,1X
Voltage per ADC value:,0.500000mV
Time interval        :,0.40000uS

index,CH1_Voltage(mV)
1,503.500000
2,503.500000
3,505.000000
4,505.500000
5,502.000000
6,502.500000
7,503.500000
8,504.500000
9,504.500000
10,503.500000
11,503.000000
12,504.000000
13,504.500000
14,501.500000
15,505.000000
16,506.000000
17,502.000000
18,504.500000
19,503.500000
20,504.500000
21,505.000000
22,505.500000
23,504.000000
24,503.000000
25,504.000000
26,505.000000
27,503.000000
28,504.500000
29,504.500000
30,504.500000
31,503.500000
32,503.500000
33,503.500000
34,504.500000
35,505.000000
36,505.000000
37,506.500000
38,505.500000
39,503.500000
40,503.500000
41,503.000000
42,504.500000
43,504.500000
44,503.500000
45,502.500000
46,503.500000
47,502.500000
48,503.000000
49,503.000000
50,506.500000
51,503.000000
52,503.500000
53,504.500000
54,504.000000
55,505.000000
56,500.500000
57,503.000000
58,503.000000
59,503.500000
60,504.000000
61,502.500000
62,504.500000
63,502.500000
64,504.500000
65,505.000000
66,502.500000
67,504.500000
68,501.500000
69,503.500000
70,503.500000
71,503.500000
72,506.500000
73,503.500000
74,504.000000
75,506.000000
76,505.000000
77,503.500000
78,504.500000
79,503.500000
80,504.500000
81,504.000000
82,505.500000
83,505.000000
84,502.500000
85,503.500000
86,504.000000
87,505.500000
88,504.000000
89,503.500000
90,504.500000
91,504.500000
92,505.000000
93,502.500000
94,503.000000
95,504.000000
96,502.000000
97,504.000000
98,501.000000
99,503.500000
100,501.500000
101,502.500000
102,504.000000
103,505.000000
104,501.000000
105,503.500000
106,505.500000
107,501.500000
108,502.500000
109,503.000000
110,503.000000
111,502.000000
112,505.000000
113,502.000000
114,503.500000
115,502.500000
116,502.500000
117,502.500000
118,505.500000
119,503.000000
120,504.500000
121,505.000000
122,503.500000
123,503.500000
124,506.000000
125,505.000000
126,503.000000
127,504.000000
128,501.000000
129,501.500000
130,502.500000
131,502.500000
132,502.000000
133,503.000000
134,503.000000
135,505.500000
136,502.500000
137,502.500000
138,503.000000
139,503.000000
140,504.000000
141,502.500000
142,503.000000
143,503.000000
144,504.000000
145,504.500000
146,504.000000
147,505.000000
148,504.000000
149,503.000000
150,502.500000
151,503.500000
152,504.000000
153,501.500000
154,500.500000
155,506.000000
156,503.500000
157,503.500000
158,501.500000
159,502.000000
160,500.000000
161,502.500000
162,501.500000
163,504.000000
164,502.500000
165,502.500000
166,505.000000
167,503.500000
168,503.500000
169,503.500000
170,504.500000
171,503.500000
172,502.000000
173,504.500000
174,501.000000
175,500.000000
176,503.000000
177,505.500000
178,502.500000
179,503.500000
180,503.500000
181,502.000000
182,501.000000
183,504.500000
184,501.000000
185,504.500000
186,503.000000
187,502.000000
188,502.000000
189,504.000000
190,503.000000
191,505.000000
192,502.000000
193,505.000000
194,504.000000
195,502.500000
196,503.500000
197,504.000000
198,505.000000
199,504.000000
200,504.000000
201,502.500000
202,503.500000
203,502.500000
204,504.500000
205,503.000000
206,503.500000
207,501.500000
208,503.000000
209,501.000000
210,504.000000
211,502.000000
212,503.500000
213,502.000000
214,505.500000
215,504.500000
216,504.500000
217,504.000000
218,506.000000
219,505.500000
220,503.500000
221,503.500000
222,505.000000
223,503.000000
224,504.000000
225,503.500000
226,502.000000
227,504.500000
228,501.500000
229,503.000000
230,500.500000
231,503.500000
232,503.000000
233,503.000000
234,500.000000
235,502.500000
236,502.000000
237,504.000000
238,501.500000
239,502.500000
240,502.000000
241,504.000000
242,503.000000
243,503.500000
244,501.500000
245,501.000000
246,503.000000
247,504.500000
248,500.000000
249,503.000000
250,502.000000
251,501.000000
252,503.000000
253,503.000000
254,503.000000
255,502.500000
256,503.000000
257,503.500000
258,502.000000
259,503.000000
260,502.000000
261,501.500000
262,501.000000
263,502.000000
264,503.000000
265,501.500000
266,501.000000
267,501.500000
268,503.500000
269,501.500000
270,502.500000
271,502.000000
272,503.500000
273,503.000000
274,503.000000
275,502.000000
276,500.500000
277,502.500000
278,503.000000
279,502.000000
280,503.500000
281,501.000000
282,502.500000
283,504.500000
284,505.000000
285,502.000000
286,501.500000
287,503.000000
288,503.000000
289,504.000000
290,503.000000
291,503.000000
292,504.000000
293,503.000000
294,502.500000
295,501.500000
296,502.500000
297,503.500000
298,504.000000
299,503.000000
300,501.500000
301,501.500000
302,501.500000
303,500.500000
304,503.000000
305,501.000000
306,504.500000
307,501.000000
308,502.500000
309,503.500000
310,503.000000
311,504.500000
312,503.000000
313,503.000000
314,502.500000
315,501.000000
316,503.500000
317,501.500000
318,501.000000
319,503.000000
320,504.500000
321,504.000000
322,503.500000
323,501.500000
324,505.500000
325,503.500000
326,501.000000
327,503.000000
328,503.500000
329,502.500000
330,502.000000
331,503.000000
332,503.000000
333,501.000000
334,503.000000
335,504.000000
336,503.000000
337,502.500000
338,503.500000
339,502.500000
340,503.000000
341,502.500000
342,503.500000
343,503.500000
344,502.500000
345,503.000000
346,503.000000
347,500.500000
348,502.500000
349,501.000000
350,503.500000
351,503.000000
352,503.500000
353,503.500000
354,502.500000
355,500.500000
356,502.500000
357,499.000000
358,503.000000
359,502.000000
360,502.500000
361,502.500000
362,501.500000
363,502.000000
364,501.500000
365,502.000000
366,504.000000
367,502.500000
368,502.000000
369,501.500000
370,503.500000
371,500.500000
372,503.000000
373,502.500000
374,501.500000
375,502.500000
376,505.000000
377,504.000000
378,503.500000
379,503.000000
380,500.500000
381,502.000000
382,501.500000
383,502.500000
384,503.000000
385,503.000000
386,500.500000
387,503.500000
388,501.500000
389,504.500000
390,502.500000
391,501.500000
392,502.500000
393,503.000000
394,502.000000
395,505.000000
396,502.000000
397,501.500000
398,502.500000
399,503.000000
400,501.000000
401,501.000000
402,502.000000
403,502.500000
404,505.000000
405,502.000000
406,501.500000
407,503.000000
408,506.500000
409,501.500000
410,502.000000
411,502.000000
412,503.500000
413,501.000000
414,500.000000
415,503.500000
416,503.000000
417,503.000000
418,504.000000
419,502.000000
420,502.000000
421,503.500000
422,501.500000
423,500.000000
424,502.500000
425,504.000000
426,501.500000
427,503.500000
428,501.500000
429,504.000000
430,504.500000
431,506.000000
432,502.500000
433,503.500000
434,502.000000
435,503.500000
436,500.000000
437,502.000000
438,502.500000
439,503.500000
440,503.500000
441,503.500000
442,503.000000
443,502.500000
444,500.500000
445,502.500000
446,503.000000
447,504.500000
448,502.500000
449,502.500000
450,504.000000
451,503.500000
452,503.000000
453,502.500000
454,500.500000
455,505.000000
456,503.000000
457,501.500000
458,503.000000
459,502.000000
460,500.500000
461,504.000000
462,501.000000
463,501.500000
464,501.500000
465,502.500000
466,502.000000
467,503.000000
468,502.500000
469,504.000000
470,503.500000
471,503.500000
472,503.000000
473,502.000000
474,502.500000
475,501.500000
476,501.000000
477,500.500000
478,503.500000
479,502.000000
480,502.500000
481,500.000000
482,500.500000
483,504.000000
484,501.500000
485,503.500000
486,502.000000
487,503.500000
488,501.500000
489,502.000000
490,503.000000
491,503.500000
492,501.500000
493,503.000000
494,505.000000
495,502.000000
496,501.500000
497,501.000000
498,504.500000
499,500.000000
500,502.000000
501,501.500000
502,501.500000
503,502.500000
504,500.500000
505,500.500000
506,501.000000
507,501.000000
508,502.000000
509,501.000000
510,504.500000
511,504.500000
512,504.500000
513,504.000000
514,503.500000
515,504.500000
516,501.500000
517,503.000000
518,501.500000
519,504.000000
520,504.000000
521,504.000000
522,504.500000
523,502.000000
524,500.500000
525,502.000000
526,500.500000
527,504.000000
528,-512.000000
529,-507.500000
530,-507.500000
531,-504.500000
532,-500.500000
533,-503.000000
534,-502.000000
535,-502.000000
536,-504.000000
537,-504.500000
538,-504.500000
539,-504.500000
540,-506.500000
541,-503.500000
542,-506.500000
543,-505.000000
544,-507.500000
545,-505.000000
546,-504.500000
547,-506.500000
548,-506.500000
549,-505.500000
550,-506.500000
551,-506.500000
552,-507.500000
553,-507.000000
554,-506.500000
555,-507.500000
556,-506.000000
557,-508.000000
558,-510.000000
559,-510.000000
560,-507.500000
561,-506.500000
562,-507.500000
563,-508.500000
564,-505.000000
565,-505.500000
566,-508.000000
567,-507.500000
568,-507.000000
569,-507.500000
570,-508.000000
571,-507.500000
572,-507.000000
573,-508.500000
574,-509.500000
575,-507.000000
576,-506.500000
577,-505.000000
578,-506.500000
579,-507.500000
580,-506.500000
581,-505.000000
582,-507.000000
583,-505.500000
584,-507.000000
585,-505.000000
586,-507.000000
587,-506.500000
588,-507.000000
589,-507.000000
590,-507.000000
591,-506.500000
592,-504.500000
593,-505.500000
594,-507.000000
595,-505.500000
596,-505.500000
597,-505.000000
598,-505.500000
599,-507.000000
600,-506.500000
601,-506.500000
602,-505.500000
603,-505.500000
604,-504.500000
605,-507.000000
606,-507.000000
607,-503.000000
608,-506.000000
609,-504.500000
610,-505.000000
611,-506.500000
612,-505.000000
613,-504.500000
614,-505.000000
615,-506.500000
616,-505.500000
617,-507.500000
618,-506.000000
619,-505.000000
620,-505.000000
621,-504.500000
622,-504.500000
623,-505.000000
624,-503.000000
625,-503.000000
626,-502.000000
627,-503.000000
628,-502.500000
629,-503.000000
630,-507.000000
631,-504.500000
632,-503.000000
633,-504.500000
634,-504.500000
635,-506.500000
636,-503.500000
637,-504.500000
638,-505.000000
639,-503.500000
640,-502.500000
641,-505.000000
642,-504.000000
643,-503.000000
644,-503.500000
645,-502.500000
646,-502.500000
647,-503.000000
648,-504.000000
649,-503.000000
650,-504.500000
651,-504.500000
652,-504.500000
653,-502.500000
654,-504.000000
655,-502.000000
656,-504.500000
657,-502.000000
658,-501.500000
659,-503.500000
660,-502.500000
661,-502.500000
662,-502.500000
663,-502.500000
664,-503.500000
665,-503.000000
666,-503.500000
667,-502.000000
668,-501.500000
669,-503.000000
670,-501.000000
671,-502.500000
672,-502.500000
673,-501.500000
674,-498.500000
675,-503.000000
676,-502.000000
677,-502.000000
678,-502.500000
679,-502.500000
680,-500.500000
681,-502.000000
682,-501.000000
683,-502.500000
684,-500.500000
685,-501.500000
686,-502.000000
687,-501.000000
688,-503.000000
689,-501.000000
690,-501.000000
691,-502.000000
692,-500.500000
693,-502.000000
694,-500.500000
695,-501.500000
696,-500.000000
697,-500.500000
698,-499.500000
699,-502.500000
700,-502.000000
701,-502.000000
702,-497.500000
703,-502.000000
704,-500.500000
705,-502.000000
706,-499.000000
707,-503.500000
708,-500.000000
709,-501.000000
710,-501.500000
711,-502.000000
712,-500.000000
713,-499.000000
714,-502.000000
715,-499.000000
716,-499.500000
717,-498.500000
718,-501.000000
719,-500.000000
720,-501.000000
721,-502.000000
722,-498.500000
723,-500.500000
724,-499.500000
725,-499.000000
726,-501.000000
727,-499.500000
728,-502.500000
729,-501.500000
730,-499.500000
731,-498.000000
732,-500.000000
733,-499.000000
734,-501.500000
735,-503.000000
736,-498.000000
737,-498.000000
738,-500.500000
739,-500.500000
740,-500.000000
741,-501.000000
742,-501.000000
743,-501.500000
744,-498.500000
745,-502.500000
746,-500.000000
747,-500.500000
748,-500.500000
749,-500.500000
750,-499.500000
751,-499.000000
752,-500.000000
753,-500.000000
754,-501.500000
755,-499.500000
756,-500.000000
757,-498.000000
758,-502.000000
759,-501.500000
760,-499.500000
761,-499.500000
762,-500.000000
763,-500.500000
764,-499.000000
765,-499.000000
766,-498.000000
767,-502.000000
768,-500.000000
769,-502.000000
770,-501.500000
771,-498.500000
772,-499.000000
773,-500.500000
774,-500.500000
775,-501.000000
776,-499.500000
777,-499.000000
778,-499.500000
779,-501.000000
780,-499.000000
781,-501.500000
782,-499.000000
783,-499.000000
784,-498.500000
785,-500.000000
786,-497.500000
787,-497.500000
788,-499.000000
789,-497.500000
790,-499.500000
791,-496.500000
792,-498.500000
793,-500.000000
794,-496.500000
795,-500.500000
796,-499.000000
797,-501.500000
798,-498.500000
799,-498.000000
800,-498.000000
801,-497.500000
802,-498.500000
803,-497.500000
804,-500.000000
805,-499.500000
806,-500.000000
807,-502.000000
808,-497.500000
809,-497.500000
810,-499.500000
811,-499.500000
812,-500.000000
813,-497.000000
814,-497.500000
815,-500.500000
816,-499.000000
817,-498.000000
818,-499.000000
819,-498.500000
820,-499.500000
821,-499.500000
822,-499.500000
823,-499.500000
824,-498.000000
825,-498.500000
826,-499.000000
827,-501.500000
828,-498.000000
829,-501.000000
830,-501.500000
831,-498.500000
832,-500.500000
833,-500.500000
834,-497.000000
835,-497.000000
836,-498.500000
837,-495.500000
838,-499.000000
839,-498.000000
840,-499.500000
841,-498.000000
842,-499.000000
843,-496.500000
844,-498.000000
845,-495.500000
846,-499.000000
847,-497.500000
848,-497.500000
849,-497.500000
850,-498.000000
851,-497.500000
852,-498.000000
853,-498.500000
854,-498.500000
855,-497.500000
856,-501.000000
857,-498.500000
858,-497.000000
859,-498.000000
860,-498.000000
861,-497.000000
862,-498.000000
863,-496.500000
864,-496.500000
865,-495.500000
866,-498.500000
867,-496.500000
868,-498.000000
869,-495.500000
870,-498.000000
871,-499.500000
872,-500.000000
873,-499.500000
874,-498.000000
875,-497.500000
876,-500.500000
877,-497.000000
878,-501.000000
879,-496.000000
880,-497.500000
881,-497.500000
882,-497.000000
883,-496.500000
884,-495.500000
885,-497.000000
886,-496.000000
887,-499.500000
888,-497.500000
889,-497.500000
890,-497.000000
891,-498.000000
892,-496.000000
893,-499.500000
894,-495.500000
895,-497.500000
896,-496.500000
897,-499.500000
898,-498.500000
899,-497.000000
900,-497.000000
901,-497.500000
902,-497.000000
903,-497.500000
904,-498.000000
905,-494.000000
906,-498.500000
907,-496.500000
908,-495.500000
909,-496.000000
910,-495.000000
911,-495.500000
912,-496.500000
913,-496.500000
914,-496.000000
915,-494.500000
916,-496.500000
917,-497.500000
918,-497.000000
919,-498.000000
920,-497.000000
921,-495.500000
922,-495.500000
923,-495.500000
924,-496.000000
925,-496.000000
926,-497.500000
927,-495.500000
928,-497.000000
929,-495.500000
930,-499.500000
931,-496.500000
932,-496.500000
933,-497.000000
934,-496.000000
935,-499.000000
936,-499.000000
937,-497.500000
938,-498.500000
939,-497.500000
940,-499.500000
941,-496.500000
942,-499.000000
943,-497.000000
944,-498.500000
945,-499.500000
946,-499.000000
947,-495.500000
948,-500.000000
949,-496.500000
950,-499.000000
951,-497.000000
952,-498.000000
953,-497.500000
954,-499.500000
955,-497.000000
956,-495.000000
957,-495.500000
958,-499.000000
959,-497.500000
960,-498.500000
961,-497.500000
962,-496.500000
963,-496.000000
964,-496.500000
965,-497.500000
966,-495.500000
967,-499.000000
968,-494.500000
969,-497.500000
970,-495.000000
971,-498.500000
972,-498.000000
973,-496.500000
974,-497.500000
975,-501.000000
976,-495.500000
977,-498.500000
978,-494.500000
979,-496.500000
980,-499.000000
981,-497.500000
982,-499.000000
983,-496.500000
984,-499.000000
985,-494.000000
986,-499.500000
987,-496.000000
988,-498.000000
989,-496.500000
990,-498.000000
991,-496.500000
992,-497.500000
993,-497.000000
994,-495.000000
995,-495.500000
996,-496.000000
997,-496.500000
998,-498.000000
999,-497.000000
1000,-495.000000
1001,-498.500000
1002,-496.500000
1003,-497.500000
1004,-497.000000
1005,-497.000000
1006,-497.000000
1007,-495.000000
1008,-499.500000
1009,-495.000000
1010,-500.000000
1011,-496.000000
1012,-497.500000
1013,-496.000000
1014,-494.500000
1015,-495.500000
1016,-496.000000
1017,-497.000000
1018,-497.000000
1019,-498.500000
1020,-498.000000
1021,-497.500000
1022,-497.500000
1023,-498.000000
1024,-498.000000
1025,-497.000000
1026,-495.500000
1027,-495.500000
1028,-498.000000
1029,-497.500000
1030,-496.000000
1031,-497.000000
1032,-495.500000
1033,-499.000000
1034,-498.500000
1035,-498.000000
1036,-498.000000
1037,-494.500000
1038,-499.500000
1039,-494.000000
1040,-496.500000
1041,-495.000000
1042,-497.000000
1043,-496.500000
1044,-496.000000
1045,-499.000000
1046,-497.500000
1047,-495.500000
1048,-496.000000
1049,-495.000000
1050,-495.500000
1051,-496.500000
1052,-497.000000
1053,-495.000000
1054,-495.000000
1055,-496.500000
1056,-496.000000
1057,-494.000000
1058,-494.500000
1059,-496.000000
1060,-494.000000
1061,-495.000000
1062,-494.000000
1063,-494.500000
1064,-498.000000
1065,-497.000000
1066,-497.000000
1067,-495.000000
1068,-495.000000
1069,-492.500000
1070,-497.000000
1071,-490.500000
1072,-496.500000
1073,-492.500000
1074,-497.500000
1075,-495.000000
1076,-495.000000
1077,-495.000000
1078,-496.000000
1079,-496.000000
1080,-494.500000
1081,-495.500000
1082,-494.500000
1083,-493.500000
1084,-493.500000
1085,-497.500000
1086,-497.000000
1087,-497.000000
1088,-497.500000
1089,-497.000000
1090,-496.000000
1091,-496.000000
1092,-495.500000
1093,-495.500000
1094,-495.000000
1095,-496.500000
1096,-496.500000
1097,-495.500000
1098,-497.500000
1099,-493.500000
1100,-497.500000
1101,-496.000000
1102,-492.500000
1103,-495.000000
1104,-495.500000
1105,-495.500000
1106,-496.000000
1107,-493.000000
1108,-495.000000
1109,-495.500000
1110,-495.500000
1111,-493.500000
1112,-495.500000
1113,-494.000000
1114,-496.000000
1115,-495.500000
1116,-497.500000
1117,-496.000000
1118,-495.500000
1119,-495.500000
1120,-497.500000
1121,-496.000000
1122,-495.000000
1123,-495.500000
1124,-498.000000
1125,-497.000000
1126,-495.500000
1127,-498.500000
1128,-493.500000
1129,-494.500000
1130,-496.000000
1131,-496.500000
1132,-495.500000
1133,-495.000000
1134,-494.500000
1135,-495.500000
1136,-496.500000
1137,-496.500000
1138,-496.000000
1139,-494.500000
1140,-498.000000
1141,-494.000000
1142,-497.000000
1143,-495.000000
1144,-496.000000
1145,-497.000000
1146,-497.500000
1147,-498.000000
1148,-496.500000
1149,-496.000000
1150,-490.500000
1151,-497.000000
1152,-493.000000
1153,-498.000000
1154,-495.500000
1155,-498.000000
1156,-494.000000
1157,-497.500000
1158,-496.000000
1159,-496.500000
1160,-496.000000
1161,-493.000000
1162,-496.500000
1163,-493.500000
1164,-498.000000
1165,-494.500000
1166,-495.500000
1167,-494.500000
1168,-495.000000
1169,-495.000000
1170,-497.000000
1171,-496.500000
1172,-496.000000
1173,-498.000000
1174,-498.500000
1175,-498.000000
1176,-495.000000
1177,-495.500000
1178,-494.000000
1179,-496.500000
1180,-498.500000
1181,-495.500000
1182,-497.000000
1183,-496.500000
1184,-495.000000
1185,-497.000000
1186,-496.000000
1187,-496.500000
1188,-497.000000
1189,-498.500000
1190,-496.500000
1191,-494.500000
1192,-495.000000
1193,-495.000000
1194,-495.500000
1195,-496.000000
1196,-497.500000
1197,-497.000000
1198,-498.000000
1199,-494.500000
1200,-494.500000
1201,-494.500000
1202,-495.000000
1203,-497.500000
1204,-497.000000
1205,-495.500000
1206,-498.000000
1207,-495.500000
1208,-497.000000
1209,-495.500000
1210,-497.000000
1211,-495.500000
1212,-495.500000
1213,-497.000000
1214,-496.000000
1215,-496.000000
1216,-496.000000
1217,-497.000000
1218,-496.500000
1219,-494.500000
1220,-495.500000
1221,-495.500000
1222,-498.000000
1223,-497.500000
1224,-498.500000
1225,-497.000000
1226,-498.000000
1227,-494.000000
1228,-496.500000
1229,-498.500000
1230,-497.500000
1231,-497.000000
1232,-494.000000
1233,-497.500000
1234,-496.500000
1235,-494.500000
1236,-495.000000
1237,-495.000000
1238,-495.500000
1239,-496.500000
1240,-493.500000
1241,-498.500000
1242,-495.000000
1243,-494.500000
1244,-495.000000
1245,-493.500000
1246,-495.000000
1247,-497.000000
1248,-496.500000
1249,-494.500000
1250,-497.000000
1251,-494.000000
1252,-497.500000
1253,-496.500000
1254,-496.500000
1255,-495.000000
1256,-498.000000
1257,-497.500000
1258,-495.000000
1259,-494.500000
1260,-496.000000
1261,-496.500000
1262,-494.500000
1263,-496.000000
1264,-494.500000
1265,-498.500000
1266,-497.000000
1267,-497.000000
1268,-496.500000
1269,-497.000000
1270,-496.500000
1271,-497.000000
1272,-495.500000
1273,-494.500000
1274,-497.000000
1275,-497.500000
1276,-497.500000
1277,-495.000000
1278,-496.000000
1279,-495.500000
1280,-496.000000
1281,-494.500000
1282,-494.500000
1283,-493.000000
1284,-496.000000
1285,-496.000000
1286,-495.500000
1287,-496.500000
1288,-494.500000
1289,-495.000000
1290,-494.500000
1291,-495.500000
1292,-498.000000
1293,-496.500000
1294,-498.500000
1295,-496.000000
1296,-495.500000
1297,-497.000000
1298,-495.500000
1299,-495.500000
1300,-494.500000
1301,-496.000000
1302,-495.500000
1303,-497.500000
1304,-496.500000
1305,-495.000000
1306,-497.000000
1307,-496.500000
1308,-496.000000
1309,-497.000000
1310,-493.500000
1311,-496.000000
1312,-496.500000
1313,-492.500000
1314,-495.500000
1315,-496.000000
1316,-495.500000
1317,-498.500000
1318,-496.500000
1319,-495.500000
1320,-495.500000
1321,-495.500000
1322,-494.500000
1323,-495.500000
1324,-496.000000
1325,-496.500000
1326,-493.500000
1327,-497.500000
1328,-497.000000
1329,-496.500000
1330,-497.500000
1331,-493.500000
1332,-496.000000
1333,-495.000000
1334,-495.000000
1335,-496.500000
1336,-494.500000
1337,-496.000000
1338,-494.500000
1339,-496.000000
1340,-493.500000
1341,-492.500000
1342,-496.000000
1343,-496.000000
1344,-497.500000
1345,-495.000000
1346,-496.500000
1347,-495.000000
1348,-497.000000
1349,-495.000000
1350,-495.000000
1351,-494.500000
1352,-495.500000
1353,-495.500000
1354,-495.000000
1355,-497.500000
1356,-494.500000
1357,-494.500000
1358,-495.500000
1359,-496.500000
1360,-494.500000
1361,-493.500000
1362,-495.500000
1363,-497.500000
1364,-490.500000
1365,-495.500000
1366,-494.000000
1367,-497.500000
1368,-494.500000
1369,-495.500000
1370,-494.500000
1371,-496.500000
1372,-494.500000
1373,-497.500000
1374,-496.500000
1375,-498.500000
1376,-497.500000
1377,-498.000000
1378,-496.500000
1379,-496.500000
1380,-496.500000
1381,-497.000000
1382,-497.000000
1383,-497.500000
1384,-496.000000
1385,-497.500000
1386,-495.500000
1387,-495.500000
1388,-498.500000
1389,-498.000000
1390,-496.000000
1391,-496.000000
1392,-496.000000
1393,-499.000000
1394,-497.500000
1395,-496.000000
1396,-495.500000
1397,-495.000000
1398,-497.500000
1399,-497.000000
1400,-497.000000
1401,-498.500000
1402,-496.000000
1403,-497.500000
1404,-496.000000
1405,-496.000000
1406,-495.500000
1407,-498.000000
1408,-497.500000
1409,-495.000000
1410,-499.500000
1411,-496.000000
1412,-496.000000
1413,-496.500000
1414,-496.000000
1415,-496.000000
1416,-497.000000
1417,-496.000000
1418,-496.500000
1419,-497.500000
1420,-498.500000
1421,515.500000
1422,512.500000
1423,512.000000
1424,510.000000
1425,510.000000
1426,509.000000
1427,509.000000
1428,512.000000
1429,509.500000
1430,510.000000
1431,511.000000
1432,509.500000
1433,510.000000
1434,512.000000
1435,509.000000
1436,510.000000
1437,512.000000
1438,511.500000
1439,512.000000
1440,511.500000
1441,513.500000
1442,514.000000
1443,512.500000
1444,515.500000
1445,512.500000
1446,513.500000
1447,512.000000
1448,513.500000
1449,515.000000
1450,513.000000
1451,514.500000
1452,515.500000
1453,514.000000
1454,514.000000
1455,515.000000
1456,516.000000
1457,513.500000
1458,514.500000
1459,514.500000
1460,513.000000
1461,514.000000
1462,513.500000
1463,512.500000
1464,513.500000
1465,514.000000
1466,512.500000
1467,513.000000
1468,513.500000
1469,513.500000
1470,513.500000
1471,514.000000
1472,514.500000
1473,516.500000
1474,513.000000
1475,516.000000
1476,513.000000
1477,513.500000
1478,514.000000
1479,511.000000
1480,513.500000
1481,514.000000
1482,511.000000
1483,514.500000
1484,512.000000
1485,513.000000
1486,510.500000
1487,514.000000
1488,511.500000
1489,510.000000
1490,509.500000
1491,513.500000
1492,512.500000
1493,512.500000
1494,512.500000
1495,510.000000
1496,510.000000
1497,512.000000
1498,512.500000
1499,513.000000
1500,511.500000
1501,513.500000
1502,510.500000
1503,512.000000
1504,511.000000
1505,512.000000
1506,513.000000
1507,511.500000
1508,511.000000
1509,512.000000
1510,509.500000
1511,511.500000
1512,511.500000
1513,509.000000
1514,512.000000
1515,510.000000
1516,510.500000
1517,510.000000
1518,511.000000
1519,511.500000
1520,510.500000
1521,508.500000
1522,510.500000
1523,508.000000
1524,510.500000
1525,510.500000
1526,511.000000
1527,509.500000
1528,508.000000
1529,507.000000
1530,510.000000
1531,510.000000
1532,510.000000
1533,510.500000
1534,510.500000
1535,507.500000
1536,510.500000
1537,508.500000
1538,511.500000
1539,507.000000
1540,509.500000
1541,507.000000
1542,510.500000
1543,512.000000
1544,508.000000
1545,512.000000
1546,509.500000
1547,507.000000
1548,511.500000
1549,509.000000
1550,509.500000
1551,509.500000
1552,509.500000
1553,508.500000
1554,510.000000
1555,510.000000
1556,510.000000
1557,509.500000
1558,508.500000
1559,511.000000
1560,511.000000
1561,507.500000
1562,510.000000
1563,509.500000
1564,510.500000
1565,508.000000
1566,509.500000
1567,508.000000
1568,510.000000
1569,507.000000
1570,509.500000
1571,509.500000
1572,513.000000
1573,510.000000
1574,510.000000
1575,509.000000
1576,510.000000
1577,508.000000
1578,509.000000
1579,508.500000
1580,508.000000
1581,510.000000
1582,508.000000
1583,509.000000
1584,507.500000
1585,508.500000
1586,509.500000
1587,507.500000
1588,509.000000
1589,507.500000
1590,508.500000
1591,506.500000
1592,509.500000
1593,506.000000
1594,505.000000
1595,505.500000
1596,507.500000
1597,507.000000
1598,508.000000
1599,508.000000
1600,507.500000
1601,506.500000
1602,508.500000
1603,507.000000
1604,507.500000
1605,510.500000
1606,507.000000
1607,509.500000
1608,506.500000
1609,508.500000
1610,507.000000
1611,509.500000
1612,509.000000
1613,506.000000
1614,509.500000
1615,506.500000
1616,508.000000
1617,507.000000
1618,508.000000
1619,506.500000
1620,504.500000
1621,505.000000
1622,504.000000
1623,509.000000
1624,506.000000
1625,508.500000
1626,506.000000
1627,509.500000
1628,503.500000
1629,506.000000
1630,505.000000
1631,506.500000
1632,504.500000
1633,506.000000
1634,506.000000
1635,507.000000
1636,505.000000
1637,507.000000
1638,506.000000
1639,506.500000
1640,504.500000
1641,505.500000
1642,504.500000
1643,505.500000
1644,506.500000
1645,506.500000
1646,504.500000
1647,507.000000
1648,506.000000
1649,506.500000
1650,507.500000
1651,506.500000
1652,502.500000
1653,503.500000
1654,505.000000
1655,504.500000
1656,504.000000
1657,507.500000
1658,506.500000
1659,503.500000
1660,504.000000
1661,505.000000
1662,504.500000
1663,506.500000
1664,504.000000
1665,506.000000
1666,506.000000
1667,506.000000
1668,505.500000
1669,505.000000
1670,507.500000
1671,505.500000
1672,504.500000
1673,505.500000
1674,505.500000
1675,506.500000
1676,504.500000
1677,507.000000
1678,506.000000
1679,504.500000
1680,506.500000
1681,505.000000
1682,505.000000
1683,505.500000
1684,506.500000
1685,507.000000
1686,505.000000
1687,504.000000
1688,503.500000
1689,504.500000
1690,504.500000
1691,505.000000
1692,506.000000
1693,505.500000
1694,505.500000
1695,505.500000
1696,506.000000
1697,507.000000
1698,504.000000
1699,507.500000
1700,505.500000
1701,509.000000
1702,506.500000
1703,507.000000
1704,505.500000
1705,504.000000
1706,503.500000
1707,504.500000
1708,505.500000
1709,509.000000
1710,505.500000
1711,505.500000
1712,503.000000
1713,504.500000
1714,504.500000
1715,504.500000
1716,503.000000
1717,506.000000
1718,505.500000
1719,505.500000
1720,506.000000
1721,502.500000
1722,507.500000
1723,504.000000
1724,508.000000
1725,505.500000
1726,506.500000
1727,503.500000
1728,506.500000
1729,504.500000
1730,507.000000
1731,505.000000
1732,507.000000
1733,505.500000
1734,506.000000
1735,507.500000
1736,505.000000
1737,506.000000
1738,503.500000
1739,504.500000
1740,503.000000
1741,504.000000
1742,504.000000
1743,504.000000
1744,505.000000
1745,504.000000
1746,504.500000
1747,502.500000
1748,505.000000
1749,503.500000
1750,505.000000
1751,506.500000
1752,504.500000
1753,505.000000
1754,505.500000
1755,506.500000
1756,503.500000
1757,505.500000
1758,504.500000
1759,507.000000
1760,501.000000
1761,504.500000
1762,504.000000
1763,504.500000
1764,504.500000
1765,504.500000
1766,504.500000
1767,504.500000
1768,505.000000
1769,507.500000
1770,505.000000
1771,506.000000
1772,503.500000
1773,504.500000
1774,505.500000
1775,506.500000
1776,504.500000
1777,505.000000
1778,503.500000
1779,503.000000
1780,504.500000
1781,504.500000
1782,507.000000
1783,504.000000
1784,506.000000
1785,504.000000
1786,504.000000
1787,502.500000
1788,503.500000
1789,503.500000
1790,504.500000
1791,502.500000
1792,505.500000
1793,502.000000
1794,505.000000
1795,504.500000
1796,503.500000
1797,504.500000
1798,503.500000
1799,506.000000
1800,503.000000
1801,506.000000
1802,507.000000
1803,502.500000
1804,503.000000
1805,503.500000
1806,502.500000
1807,504.000000
1808,504.000000
1809,502.500000
1810,504.000000
1811,504.500000
1812,506.500000
1813,503.500000
1814,504.500000
1815,504.000000
1816,506.000000
1817,504.000000
1818,505.500000
1819,504.500000
1820,505.000000
1821,505.000000
1822,503.000000
1823,501.500000
1824,503.500000
1825,503.500000
1826,502.000000
1827,503.500000
1828,505.500000
1829,503.500000
1830,503.000000
1831,502.500000
1832,503.000000
1833,506.500000
1834,503.500000
1835,504.000000
1836,503.000000
1837,505.500000
1838,502.500000
1839,506.500000
1840,502.500000
1841,505.000000
1842,503.500000
1843,502.500000
1844,505.500000
1845,503.000000
1846,504.500000
1847,504.500000
1848,503.500000
1849,503.500000
1850,505.500000
1851,503.000000
1852,506.000000
1853,505.500000
1854,504.000000
1855,504.000000
1856,503.500000
1857,504.000000
1858,507.000000
1859,502.500000
1860,503.500000
1861,505.000000
1862,504.500000
1863,503.500000
1864,504.500000
1865,507.000000
1866,503.000000
1867,505.000000
1868,506.500000
1869,505.000000
1870,503.000000
1871,504.000000
1872,506.500000
1873,505.500000
1874,501.500000
1875,505.000000
1876,506.500000
1877,504.000000
1878,502.000000
1879,505.000000
1880,503.500000
1881,502.500000
1882,505.500000
1883,504.000000
1884,504.500000
1885,504.000000
1886,502.500000
1887,505.000000
1888,502.500000
1889,502.500000
1890,502.000000
1891,499.500000
1892,504.500000
1893,501.000000
1894,501.000000
1895,503.000000
1896,504.500000
1897,503.000000
1898,504.500000
1899,503.000000
1900,503.500000
1901,504.500000
1902,502.500000
1903,503.000000
1904,501.500000
1905,503.500000
1906,504.500000
1907,504.500000
1908,503.500000
1909,504.500000
1910,501.500000
1911,505.500000
1912,505.000000
1913,501.000000
1914,504.500000
1915,504.500000
1916,502.000000
1917,505.500000
1918,503.500000
1919,499.000000
1920,503.500000
1921,504.500000
1922,504.000000
1923,503.500000
1924,501.500000
1925,503.500000
1926,501.000000
1927,504.500000
1928,501.500000
1929,502.500000
1930,502.000000
1931,504.000000
1932,504.500000
1933,503.500000
1934,500.500000
1935,501.500000
1936,502.500000
1937,502.500000
1938,503.000000
1939,503.500000
1940,503.500000
1941,504.500000
1942,503.500000
1943,504.000000
1944,504.000000
1945,503.000000
1946,499.500000
1947,504.500000
1948,502.000000
1949,500.500000
1950,502.500000
1951,503.000000
1952,505.000000
1953,504.000000
1954,503.500000
1955,504.000000
1956,504.500000
1957,504.500000
1958,503.000000
1959,504.500000
1960,503.000000
1961,501.000000
1962,502.500000
1963,503.000000
1964,503.000000
1965,503.500000
1966,502.000000
1967,502.000000
1968,503.500000
1969,503.000000
1970,501.000000
1971,502.500000
1972,502.500000
1973,501.000000
1974,501.500000
1975,500.500000
1976,500.000000
1977,504.500000
1978,503.000000
1979,501.500000
1980,503.000000
1981,499.000000
1982,503.500000
1983,504.500000
1984,504.500000
1985,505.000000
1986,503.000000
1987,502.500000
1988,503.500000
1989,501.000000
1990,500.000000
1991,501.500000
1992,503.500000
1993,503.000000
1994,502.500000
1995,505.000000
1996,503.500000
1997,502.500000
1998,503.000000
1999,503.500000
2000,501.500000
2001,503.000000
2002,501.500000
2003,502.500000
2004,501.000000
2005,502.500000
2006,502.000000
2007,503.500000
2008,504.000000
2009,506.000000
2010,504.000000
2011,503.000000
2012,504.000000
2013,502.500000
2014,504.000000
2015,502.500000
2016,506.000000
2017,501.000000
2018,501.500000
2019,502.000000
2020,503.500000
2021,501.000000
2022,500.000000
2023,501.500000
2024,503.500000
2025,502.500000
2026,502.500000
2027,504.500000
2028,501.500000
2029,502.000000
2030,502.500000
2031,502.000000
2032,501.500000
2033,501.500000
2034,503.000000
2035,501.500000
2036,501.000000
2037,502.500000
2038,502.500000
2039,503.000000
2040,503.000000
2041,501.500000
2042,503.000000
2043,502.500000
2044,503.500000
2045,503.000000
2046,503.500000
2047,503.500000
2048,501.000000
2049,502.000000
2050,502.000000
2051,504.500000
2052,501.000000
2053,502.500000
2054,501.500000
2055,501.000000
2056,502.500000
2057,502.500000
2058,501.500000
2059,502.500000
2060,503.000000
2061,502.500000
2062,501.000000
2063,501.500000
2064,503.000000
2065,503.500000
2066,503.000000
2067,505.000000
2068,504.000000
2069,499.500000
2070,504.500000
2071,502.500000
2072,501.500000
2073,503.000000
2074,504.500000
2075,503.000000
2076,503.500000
2077,503.000000
2078,503.000000
2079,501.000000
2080,502.000000
2081,503.000000
2082,502.000000
2083,501.500000
2084,503.000000
2085,502.500000
2086,504.000000
2087,501.000000
2088,503.000000
2089,502.500000
2090,502.000000
2091,504.000000
2092,503.000000
2093,505.000000
2094,503.500000
2095,503.500000
2096,501.000000
2097,503.500000
2098,501.500000
2099,501.500000
2100,501.500000
2101,503.000000
2102,500.500000
2103,501.500000
2104,503.500000
2105,502.000000
2106,502.500000
2107,504.500000
2108,502.000000
2109,504.000000
2110,501.000000
2111,501.500000
2112,504.500000
2113,503.500000
2114,501.500000
2115,502.500000
2116,501.000000
2117,501.500000
2118,503.000000
2119,502.000000
2120,501.500000
2121,502.500000
2122,504.500000
2123,501.000000
2124,501.500000
2125,501.000000
2126,502.500000
2127,503.500000
2128,501.500000
2129,502.500000
2130,502.500000
2131,502.500000
2132,504.000000
2133,501.500000
2134,502.500000
2135,500.500000
2136,501.500000
2137,501.000000
2138,503.500000
2139,503.500000
2140,501.000000
2141,504.000000
2142,501.500000
2143,502.000000
2144,503.000000
2145,502.000000
2146,500.500000
2147,504.000000
2148,503.500000
2149,503.500000
2150,503.000000
2151,499.500000
2152,503.000000
2153,502.000000
2154,502.500000
2155,502.000000
2156,502.000000
2157,501.500000
2158,505.000000
2159,504.500000
2160,503.000000
2161,502.500000
2162,502.000000
2163,501.500000
2164,502.000000
2165,502.500000
2166,502.000000
2167,503.000000
2168,504.500000
2169,503.500000
2170,502.500000
2171,503.500000
2172,505.000000
2173,502.000000
2174,504.000000
2175,501.500000
2176,502.500000
2177,502.500000
2178,502.000000
2179,503.500000
2180,501.500000
2181,503.000000
2182,503.000000
2183,504.500000
2184,502.000000
2185,503.000000
2186,501.500000
2187,502.000000
2188,504.000000
2189,502.500000
2190,502.500000
2191,504.000000
2192,502.000000
2193,504.500000
2194,501.500000
2195,503.500000
2196,501.500000
2197,505.500000
2198,501.000000
2199,501.000000
2200,502.000000
2201,501.500000
2202,502.000000
2203,501.000000
2204,502.000000
2205,503.000000
2206,501.500000
2207,504.000000
2208,502.000000
2209,502.500000
2210,502.500000
2211,505.000000
2212,503.500000
2213,500.000000
2214,504.000000
2215,500.000000
2216,501.500000
2217,501.000000
2218,502.500000
2219,501.000000
2220,502.000000
2221,502.000000
2222,500.500000
2223,503.500000
2224,501.500000
2225,503.500000
2226,501.000000
2227,503.500000
2228,504.500000
2229,502.500000
2230,504.500000
2231,499.500000
2232,503.500000
2233,501.500000
2234,503.500000
2235,502.500000
2236,500.500000
2237,501.500000
2238,500.500000
2239,502.000000
2240,502.000000
2241,501.500000
2242,502.500000
2243,503.500000
2244,502.000000
2245,501.000000
2246,503.500000
2247,502.500000
2248,501.500000
2249,501.000000
2250,502.500000
2251,500.000000
2252,501.500000
2253,503.500000
2254,503.000000
2255,502.000000
2256,502.500000
2257,503.000000
2258,502.000000
2259,501.500000
2260,502.000000
2261,504.000000
2262,501.500000
2263,504.500000
2264,501.000000
2265,501.000000
2266,502.000000
2267,502.500000
2268,502.500000
2269,502.000000
2270,503.000000
2271,501.000000
2272,501.000000
2273,505.500000
2274,501.000000
2275,502.500000
2276,501.000000
2277,502.000000
2278,501.500000
2279,501.500000
2280,501.500000
2281,504.500000
2282,505.000000
2283,502.500000
2284,502.500000
2285,504.500000
2286,502.500000
2287,501.000000
2288,502.500000
2289,501.000000
2290,500.500000
2291,502.000000
2292,500.000000
2293,501.500000
2294,501.500000
2295,502.000000
2296,501.000000
2297,501.500000
2298,504.000000
2299,503.000000
2300,502.000000
2301,503.000000
2302,502.500000
2303,504.000000
2304,503.500000
2305,506.000000
2306,502.500000
2307,500.000000
2308,501.000000
2309,501.500000
2310,502.500000
2311,503.000000
2312,501.000000
2313,-492.500000
2314,-509.000000
2315,-504.000000
2316,-504.000000
2317,-505.000000
2318,-502.000000
2319,-503.000000
2320,-504.500000
2321,-505.000000
2322,-505.000000
2323,-502.500000
2324,-503.000000
2325,-505.500000
2326,-504.500000
2327,-504.000000
2328,-505.000000
2329,-503.500000
2330,-508.500000
2331,-505.500000
2332,-505.500000
2333,-509.000000
2334,-508.000000
2335,-506.500000
2336,-505.500000
2337,-507.500000
2338,-507.000000
2339,-505.500000
2340,-507.500000
2341,-506.500000
2342,-509.000000
2343,-507.000000
2344,-507.500000
2345,-505.500000
2346,-506.500000
2347,-507.000000
2348,-505.000000
2349,-507.500000
2350,-507.500000
2351,-509.000000
2352,-507.500000
2353,-508.500000
2354,-506.500000
2355,-507.500000
2356,-506.500000
2357,-507.500000
2358,-506.000000
2359,-509.500000
2360,-507.000000
2361,-507.500000
2362,-509.500000
2363,-507.500000
2364,-504.000000
2365,-507.000000
2366,-506.000000
2367,-505.000000
2368,-508.000000
2369,-507.000000
2370,-506.000000
2371,-505.500000
2372,-506.500000
2373,-503.500000
2374,-508.000000
2375,-505.500000
2376,-506.000000
2377,-508.000000
2378,-504.000000
2379,-504.000000
2380,-505.000000
2381,-507.000000
2382,-504.000000
2383,-506.000000
2384,-505.500000
2385,-503.000000
2386,-504.500000
2387,-505.000000
2388,-506.500000
2389,-502.500000
2390,-503.500000
2391,-504.000000
2392,-505.500000
2393,-504.500000
2394,-507.000000
2395,-504.000000
2396,-504.500000
2397,-505.500000
2398,-505.500000
2399,-505.000000
2400,-508.000000
2401,-504.000000
2402,-505.500000
2403,-508.000000
2404,-504.000000
2405,-504.000000
2406,-504.500000
2407,-504.500000
2408,-504.500000
2409,-505.000000
2410,-504.500000
2411,-504.500000
2412,-504.500000
2413,-503.000000
2414,-505.000000
2415,-505.000000
2416,-503.000000
2417,-504.500000
2418,-503.500000
2419,-504.000000
2420,-503.500000
2421,-502.500000
2422,-504.000000
2423,-504.000000
2424,-503.000000
2425,-504.500000
2426,-502.000000
2427,-503.000000
2428,-503.500000
2429,-503.500000
2430,-503.000000
2431,-502.500000
2432,-502.000000
2433,-504.000000
2434,-503.500000
2435,-504.000000
2436,-503.500000
2437,-502.000000
2438,-504.500000
2439,-503.500000
2440,-502.000000
2441,-502.500000
2442,-502.500000
2443,-504.000000
2444,-501.000000
2445,-505.000000
2446,-501.500000
2447,-503.000000
2448,-502.000000
2449,-502.500000
2450,-503.500000
2451,-501.500000
2452,-503.500000
2453,-500.000000
2454,-501.000000
2455,-500.500000
2456,-499.500000
2457,-502.500000
2458,-501.500000
2459,-502.500000
2460,-500.500000
2461,-501.500000
2462,-498.500000
2463,-501.000000
2464,-501.000000
2465,-502.500000
2466,-500.500000
2467,-501.500000
2468,-501.500000
2469,-500.000000
2470,-501.000000
2471,-501.000000
2472,-501.500000
2473,-501.000000
2474,-500.000000
2475,-501.500000
2476,-502.000000
2477,-504.000000
2478,-501.500000
2479,-501.500000
2480,-499.000000
2481,-500.000000
2482,-498.000000
2483,-501.000000
2484,-501.000000
2485,-502.000000
2486,-498.500000
2487,-501.000000
2488,-501.000000
2489,-502.000000
2490,-502.000000
2491,-502.500000
2492,-501.000000
2493,-499.000000
2494,-500.500000
2495,-500.500000
2496,-501.000000
2497,-500.500000
2498,-502.000000
2499,-501.000000
2500,-501.000000
2501,-500.000000
2502,-500.500000
2503,-501.500000
2504,-501.000000
2505,-501.500000
2506,-499.500000
2507,-501.000000
2508,-501.000000
2509,-500.500000
2510,-502.500000
2511,-500.500000
2512,-501.000000
2513,-500.000000
2514,-501.500000
2515,-501.000000
2516,-502.000000
2517,-499.500000
2518,-500.000000
2519,-498.500000
2520,-502.500000
2521,-502.000000
2522,-501.000000
2523,-502.500000
2524,-502.000000
2525,-502.500000
2526,-501.000000
2527,-500.000000
2528,-500.500000
2529,-500.000000
2530,-502.000000
2531,-501.000000
2532,-503.500000
2533,-501.000000
2534,-501.500000
2535,-501.500000
2536,-503.500000
2537,-499.000000
2538,-500.500000
2539,-499.500000
2540,-499.500000
2541,-497.000000
2542,-501.000000
2543,-500.000000
2544,-500.000000
2545,-498.500000
2546,-499.000000
2547,-498.500000
2548,-498.000000
2549,-500.500000
2550,-498.500000
2551,-501.000000
2552,-499.000000
2553,-499.000000
2554,-499.500000
2555,-500.500000
2556,-499.500000
2557,-500.000000
2558,-500.500000
2559,-500.500000
2560,-499.000000
2561,-502.000000
2562,-499.000000
2563,-499.000000
2564,-499.000000
2565,-499.500000
2566,-500.500000
2567,-502.000000
2568,-498.500000
2569,-501.500000
2570,-501.500000
2571,-501.000000
2572,-498.500000
2573,-499.000000
2574,-497.500000
2575,-500.500000
2576,-503.500000
2577,-498.500000
2578,-501.000000
2579,-500.500000
2580,-500.000000
2581,-498.500000
2582,-499.500000
2583,-498.500000
2584,-500.500000
2585,-501.500000
2586,-497.000000
2587,-502.000000
2588,-497.500000
2589,-499.000000
2590,-499.000000
2591,-498.500000
2592,-499.500000
2593,-500.500000
2594,-499.500000
2595,-496.500000
2596,-498.500000
2597,-498.000000
2598,-498.500000
2599,-497.500000
2600,-500.500000
2601,-500.000000
2602,-501.500000
2603,-498.500000
2604,-500.500000
2605,-498.000000
2606,-500.000000
2607,-499.500000
2608,-498.000000
2609,-499.000000
2610,-498.000000
2611,-500.500000
2612,-499.000000
2613,-499.500000
2614,-498.500000
2615,-498.500000
2616,-499.000000
2617,-498.500000
2618,-498.500000
2619,-500.500000
2620,-499.000000
2621,-498.500000
2622,-499.000000
2623,-501.000000
2624,-499.000000
2625,-501.500000
2626,-498.500000
2627,-500.500000
2628,-496.500000
2629,-497.000000
2630,-497.500000
2631,-499.500000
2632,-501.000000
2633,-498.500000
2634,-498.500000
2635,-499.500000
2636,-498.500000
2637,-499.000000
2638,-500.500000
2639,-498.500000
2640,-498.000000
2641,-499.000000
2642,-498.500000
2643,-498.500000
2644,-497.500000
2645,-498.000000
2646,-498.500000
2647,-497.000000
2648,-499.500000
2649,-498.000000
2650,-497.000000
2651,-498.000000
2652,-497.500000
2653,-497.500000
2654,-496.500000
2655,-495.500000
2656,-497.000000
2657,-496.500000
2658,-498.500000
2659,-497.000000
2660,-496.500000
2661,-498.500000
2662,-498.000000
2663,-499.000000
2664,-498.000000
2665,-498.500000
2666,-496.500000
2667,-497.500000
2668,-496.500000
2669,-499.000000
2670,-497.000000
2671,-497.500000
2672,-497.500000
2673,-494.500000
2674,-497.000000
2675,-498.500000
2676,-497.000000
2677,-495.500000
2678,-496.000000
2679,-497.000000
2680,-496.500000
2681,-496.000000
2682,-498.000000
2683,-496.500000
2684,-497.500000
2685,-498.000000
2686,-498.000000
2687,-496.500000
2688,-496.000000
2689,-499.500000
2690,-495.500000
2691,-497.000000
2692,-497.500000
2693,-494.500000
2694,-495.000000
2695,-497.500000
2696,-498.000000
2697,-497.000000
2698,-497.000000
2699,-497.500000
2700,-498.500000
2701,-496.500000
2702,-497.500000
2703,-498.000000
2704,-499.500000
2705,-498.000000
2706,-497.500000
2707,-499.500000
2708,-496.500000
2709,-495.500000
2710,-497.500000
2711,-496.500000
2712,-498.000000
2713,-497.000000
2714,-495.500000
2715,-497.500000
2716,-494.000000
2717,-499.000000
2718,-497.500000
2719,-499.000000
2720,-497.000000
2721,-498.500000
2722,-496.500000
2723,-499.000000
2724,-498.500000
2725,-499.000000
2726,-497.000000
2727,-495.500000
2728,-497.000000
2729,-496.500000
2730,-497.500000
2731,-496.000000
2732,-497.500000
2733,-496.000000
2734,-496.500000
2735,-498.500000
2736,-495.000000
2737,-496.500000
2738,-495.500000
2739,-499.500000
2740,-497.500000
2741,-496.500000
2742,-498.000000
2743,-497.500000
2744,-498.000000
2745,-495.000000
2746,-494.500000
2747,-495.500000
2748,-497.000000
2749,-496.500000
2750,-498.500000
2751,-496.000000
2752,-497.000000
2753,-495.000000
2754,-496.000000
2755,-497.000000
2756,-495.500000
2757,-497.000000
2758,-497.000000
2759,-498.500000
2760,-498.000000
2761,-498.000000
2762,-496.000000
2763,-497.500000
2764,-497.000000
2765,-496.500000
2766,-498.000000
2767,-499.000000
2768,-496.500000
2769,-497.000000
2770,-498.000000
2771,-496.500000
2772,-497.500000
2773,-498.500000
2774,-497.000000
2775,-497.000000
2776,-498.500000
2777,-497.000000
2778,-497.500000
2779,-499.500000
2780,-497.500000
2781,-497.500000
2782,-498.500000
2783,-498.000000
2784,-496.000000
2785,-497.000000
2786,-496.000000
2787,-498.000000
2788,-496.000000
2789,-494.500000
2790,-496.000000
2791,-496.500000
2792,-497.500000
2793,-495.500000
2794,-497.000000
2795,-496.500000
2796,-499.500000
2797,-496.500000
2798,-497.000000
2799,-496.000000
2800,-496.500000
2801,-498.000000
2802,-497.500000
2803,-495.500000
2804,-499.500000
2805,-498.000000
2806,-498.000000
2807,-497.000000
2808,-497.500000
2809,-496.500000
2810,-495.500000
2811,-499.500000
2812,-496.500000
2813,-495.000000
2814,-497.000000
2815,-498.500000
2816,-497.500000
2817,-496.500000
2818,-498.000000
2819,-495.000000
2820,-496.500000
2821,-497.500000
2822,-499.500000
2823,-497.000000
2824,-496.500000
2825,-494.000000
2826,-496.500000
2827,-498.000000
2828,-496.500000
2829,-497.000000
2830,-495.500000
2831,-496.500000
2832,-498.500000
2833,-497.500000
2834,-498.000000
2835,-497.500000
2836,-496.500000
2837,-499.500000
2838,-495.500000
2839,-493.500000
2840,-495.000000
2841,-498.500000
2842,-495.000000
2843,-497.000000
2844,-494.500000
2845,-495.500000
2846,-496.000000
2847,-495.000000
2848,-496.500000
2849,-496.500000
2850,-497.500000
2851,-495.500000
2852,-495.500000
2853,-496.500000
2854,-498.500000
2855,-495.500000
2856,-497.500000
2857,-497.500000
2858,-496.000000
2859,-496.500000
2860,-497.500000
2861,-495.500000
2862,-497.000000
2863,-498.500000
2864,-496.500000
2865,-495.500000
2866,-497.000000
2867,-494.000000
2868,-495.500000
2869,-494.500000
2870,-497.000000
2871,-496.000000
2872,-497.000000
2873,-495.000000
2874,-498.500000
2875,-495.000000
2876,-495.500000
2877,-496.000000
2878,-495.000000
2879,-495.000000
2880,-497.000000
2881,-496.500000
2882,-496.500000
2883,-496.000000
2884,-497.000000
2885,-497.000000
2886,-495.000000
2887,-496.500000
2888,-495.500000
2889,-494.000000
2890,-494.000000
2891,-497.500000
2892,-497.500000
2893,-497.000000
2894,-496.500000
2895,-497.000000
2896,-495.000000
2897,-495.500000
2898,-496.500000
2899,-495.000000
2900,-499.500000
2901,-496.500000
2902,-496.500000
2903,-497.500000
2904,-498.000000
2905,-497.500000
2906,-497.000000
2907,-497.500000
2908,-495.500000
2909,-499.500000
2910,-497.500000
2911,-498.000000
2912,-496.000000
2913,-497.500000
2914,-498.500000
2915,-498.500000
2916,-497.000000
2917,-497.000000
2918,-496.000000
2919,-496.500000
2920,-497.500000
2921,-496.500000
2922,-495.000000
2923,-496.500000
2924,-496.500000
2925,-495.000000
2926,-494.500000
2927,-495.500000
2928,-497.000000
2929,-498.000000
2930,-494.500000
2931,-496.000000
2932,-496.000000
2933,-494.500000
2934,-494.000000
2935,-497.000000
2936,-495.500000
2937,-499.500000
2938,-496.000000
2939,-495.000000
2940,-495.500000
2941,-497.500000
2942,-495.000000
2943,-494.500000
2944,-495.000000
2945,-496.500000
2946,-495.500000
2947,-497.000000
2948,-496.000000
2949,-496.000000
2950,-497.000000
2951,-496.000000
2952,-496.500000
2953,-498.500000
2954,-496.000000
2955,-497.500000
2956,-495.500000
2957,-495.500000
2958,-497.000000
2959,-492.500000
2960,-497.000000
2961,-494.500000
2962,-495.500000
2963,-494.500000
2964,-496.500000
2965,-495.000000
2966,-496.500000
2967,-496.500000
2968,-494.500000
2969,-498.000000
2970,-495.500000
2971,-496.000000
2972,-494.500000
2973,-497.500000
2974,-493.500000
2975,-497.500000
2976,-497.000000
2977,-497.000000
2978,-496.000000
2979,-495.500000
2980,-494.500000
2981,-494.000000
2982,-494.000000
2983,-495.500000
2984,-497.000000
2985,-496.500000
2986,-497.500000
2987,-498.000000
2988,-496.000000
2989,-498.000000
2990,-498.000000
2991,-497.000000
2992,-496.500000
2993,-495.500000
2994,-496.500000
2995,-494.500000
2996,-495.000000
2997,-497.500000
2998,-496.500000
2999,-497.000000
3000,-494.500000
3001,-498.000000
3002,-495.000000
3003,-497.000000
3004,-495.500000
3005,-494.500000
3006,-495.000000
3007,-492.500000
3008,-499.000000
3009,-493.500000
3010,-495.000000
3011,-494.500000
3012,-495.500000
3013,-495.000000
3014,-495.500000
3015,-497.500000
3016,-495.500000
3017,-496.500000
3018,-498.500000
3019,-497.500000
3020,-495.500000
3021,-496.500000
3022,-497.500000
3023,-495.000000
3024,-498.000000
3025,-495.500000
3026,-497.000000
3027,-496.500000
3028,-495.000000
3029,-495.500000
3030,-495.500000
3031,-496.000000
3032,-496.000000
3033,-496.500000
3034,-497.000000
3035,-497.000000
3036,-495.000000
3037,-494.000000
3038,-494.000000
3039,-496.500000
3040,-497.000000
3041,-496.000000
3042,-496.000000
3043,-495.500000
3044,-495.500000
3045,-493.500000
3046,-496.500000
3047,-497.000000
3048,-496.000000
3049,-497.000000
3050,-494.500000
3051,-498.500000
3052,-495.500000
3053,-498.000000
3054,-495.500000
3055,-495.500000
3056,-498.000000
3057,-496.500000
3058,-497.000000
3059,-494.500000
3060,-496.500000
3061,-494.500000
3062,-497.500000
3063,-494.500000
3064,-496.000000
3065,-499.000000
3066,-495.500000
3067,-495.000000
3068,-496.000000
3069,-495.500000
3070,-496.000000
3071,-496.000000
3072,-495.000000
3073,-496.000000
3074,-497.500000
3075,-496.000000
3076,-496.500000
3077,-497.000000
3078,-496.000000
3079,-498.000000
3080,-498.000000
3081,-495.500000
3082,-494.500000
3083,-496.500000
3084,-496.500000
3085,-494.500000
3086,-498.000000
3087,-494.500000
3088,-496.000000
3089,-495.500000
3090,-495.500000
3091,-496.500000
3092,-494.000000
3093,-495.000000
3094,-498.000000
3095,-495.500000
3096,-497.500000
3097,-495.000000
3098,-495.500000
3099,-496.500000
3100,-495.000000
3101,-496.500000
3102,-496.000000
3103,-496.500000
3104,-497.000000
3105,-495.000000
3106,-500.000000
3107,-496.500000
3108,-496.000000
3109,-497.500000
3110,-497.000000
3111,-496.000000
3112,-496.500000
3113,-496.500000
3114,-495.500000
3115,-494.500000
3116,-497.500000
3117,-494.500000
3118,-494.500000
3119,-496.000000
3120,-495.500000
3121,-496.500000
3122,-497.500000
3123,-495.500000
3124,-497.500000
3125,-496.500000
3126,-499.000000
3127,-496.000000
3128,-496.500000
3129,-495.000000
3130,-494.500000
3131,-496.000000
3132,-494.500000
3133,-496.500000
3134,-497.500000
3135,-496.000000
3136,-495.500000
3137,-494.500000
3138,-496.000000
3139,-496.500000
3140,-495.500000
3141,-495.000000
3142,-495.000000
3143,-496.000000
3144,-497.500000
3145,-495.000000
3146,-493.000000
3147,-496.000000
3148,-494.500000
3149,-494.500000
3150,-496.000000
3151,-493.500000
3152,-496.500000
3153,-495.000000
3154,-496.000000
3155,-494.500000
3156,-495.000000
3157,-495.500000
3158,-492.500000
3159,-495.500000
3160,-494.000000
3161,-495.500000
3162,-495.000000
3163,-493.000000
3164,-495.500000
3165,-495.500000
3166,-496.500000
3167,-495.000000
3168,-496.000000
3169,-495.500000
3170,-494.500000
3171,-496.500000
3172,-495.000000
3173,-494.500000
3174,-493.000000
3175,-496.000000
3176,-495.000000
3177,-497.000000
3178,-496.000000
3179,-494.500000
3180,-497.500000
3181,-497.500000
3182,-496.000000
3183,-498.500000
3184,-494.500000
3185,-496.500000
3186,-496.500000
3187,-494.500000
3188,-495.500000
3189,-495.000000
3190,-494.500000
3191,-498.000000
3192,-497.500000
3193,-495.000000
3194,-495.500000
3195,-495.500000
3196,-494.000000
3197,-496.000000
3198,-494.500000
3199,-496.500000
3200,-496.500000
3201,-494.500000
3202,-495.000000
3203,-496.000000
3204,-493.000000
3205,-495.000000
3206,517.000000
3207,514.500000
3208,511.500000
3209,511.500000
3210,511.000000
3211,509.500000
3212,511.500000
3213,511.000000
3214,510.000000
3215,511.500000
3216,510.000000
3217,511.000000
3218,511.500000
3219,512.500000
3220,511.500000
3221,513.000000
3222,515.000000
3223,509.500000
3224,516.500000
3225,514.000000
3226,511.500000
3227,513.500000
3228,511.500000
3229,516.000000
3230,513.000000
3231,516.000000
3232,515.000000
3233,515.000000
3234,513.000000
3235,513.000000
3236,515.500000
3237,512.000000
3238,515.000000
3239,513.500000
3240,515.000000
3241,513.500000
3242,512.500000
3243,514.000000
3244,514.000000
3245,513.500000
3246,513.500000
3247,513.000000
3248,513.500000
3249,512.500000
3250,513.500000
3251,513.500000
3252,514.500000
3253,512.500000
3254,513.500000
3255,513.000000
3256,511.500000
3257,513.500000
3258,511.500000
3259,514.000000
3260,514.500000
3261,513.500000
3262,514.500000
3263,513.500000
3264,515.500000
3265,513.000000
3266,516.000000
3267,510.500000
3268,517.000000
3269,512.500000
3270,511.500000
3271,513.000000
3272,512.000000
3273,512.000000
3274,513.500000
3275,511.500000
3276,512.500000
3277,513.500000
3278,511.000000
3279,510.500000
3280,513.500000
3281,509.000000
3282,511.000000
3283,512.000000
3284,512.000000
3285,511.500000
3286,511.500000
3287,512.000000
3288,511.000000
3289,510.000000
3290,510.000000
3291,508.500000
3292,514.000000
3293,512.500000
3294,514.000000
3295,512.000000
3296,512.000000
3297,512.500000
3298,511.500000
3299,508.500000
3300,510.500000
3301,511.500000
3302,512.500000
3303,509.000000
3304,512.000000
3305,511.000000
3306,512.000000
3307,513.500000
3308,511.000000
3309,507.000000
3310,511.000000
3311,511.500000
3312,512.000000
3313,511.000000
3314,513.000000
3315,508.000000
3316,510.500000
3317,511.000000
3318,510.500000
3319,511.000000
3320,509.500000
3321,511.000000
3322,512.500000
3323,512.500000
3324,510.000000
3325,511.000000
3326,510.500000
3327,509.500000
3328,511.500000
3329,508.500000
3330,511.000000
3331,507.500000
3332,509.000000
3333,511.000000
3334,508.000000
3335,509.500000
3336,508.500000
3337,510.000000
3338,509.500000
3339,507.500000
3340,508.500000
3341,510.000000
3342,512.500000
3343,507.500000
3344,509.000000
3345,509.000000
3346,508.500000
3347,507.500000
3348,510.500000
3349,508.000000
3350,509.500000
3351,508.500000
3352,512.000000
3353,509.500000
3354,509.500000
3355,508.500000
3356,508.500000
3357,509.000000
3358,509.000000
3359,511.500000
3360,509.500000
3361,509.000000
3362,507.000000
3363,507.500000
3364,507.500000
3365,507.500000
3366,506.500000
3367,506.500000
3368,507.000000
3369,509.500000
3370,508.500000
3371,508.500000
3372,508.000000
3373,508.500000
3374,507.000000
3375,510.000000
3376,507.500000
3377,508.000000
3378,505.500000
3379,509.000000
3380,507.000000
3381,507.000000
3382,507.500000
3383,508.000000
3384,506.500000
3385,507.500000
3386,505.500000
3387,509.000000
3388,508.500000
3389,507.500000
3390,503.500000
3391,507.000000
3392,508.500000
3393,508.500000
3394,508.500000
3395,508.500000
3396,507.500000
3397,507.000000
3398,507.500000
3399,509.000000
3400,508.000000
3401,510.500000
3402,507.500000
3403,507.500000
3404,507.500000
3405,508.000000
3406,507.500000
3407,505.500000
3408,507.500000
3409,508.000000
3410,506.500000
3411,506.500000
3412,507.500000
3413,506.000000
3414,504.500000
3415,508.000000
3416,508.500000
3417,508.500000
3418,507.500000
3419,507.500000
3420,510.000000
3421,507.500000
3422,506.500000
3423,510.500000
3424,507.500000
3425,512.000000
3426,505.000000
3427,506.500000
3428,506.000000
3429,508.000000
3430,508.000000
3431,508.000000
3432,506.000000
3433,507.000000
3434,509.000000
3435,508.500000
3436,510.500000
3437,509.500000
3438,507.000000
3439,506.500000
3440,508.000000
3441,507.000000
3442,506.000000
3443,505.500000
3444,507.000000
3445,507.000000
3446,507.000000
3447,506.000000
3448,506.500000
3449,507.500000
3450,507.000000
3451,507.000000
3452,506.000000
3453,507.500000
3454,507.000000
3455,507.000000
3456,507.000000
3457,508.500000
3458,507.500000
3459,506.000000
3460,506.000000
3461,505.500000
3462,507.500000
3463,507.000000
3464,508.000000
3465,506.000000
3466,506.500000
3467,506.500000
3468,505.500000
3469,507.000000
3470,506.000000
3471,506.000000
3472,504.500000
3473,505.500000
3474,505.500000
3475,504.500000
3476,505.000000
3477,503.500000
3478,508.000000
3479,506.500000
3480,507.500000
3481,504.500000
3482,506.000000
3483,503.500000
3484,505.500000
3485,505.500000
3486,507.500000
3487,505.000000
3488,504.500000
3489,505.500000
3490,506.500000
3491,504.000000
3492,505.000000
3493,501.000000
3494,505.000000
3495,504.000000
3496,504.500000
3497,505.500000
3498,504.500000
3499,505.000000
3500,505.500000
3501,504.500000
3502,506.000000
3503,505.500000
3504,504.000000
3505,504.000000
3506,507.000000
3507,505.500000
3508,505.500000
3509,506.500000
3510,503.500000
3511,505.000000
3512,507.000000
3513,505.500000
3514,504.000000
3515,505.000000
3516,504.000000
3517,505.000000
3518,504.000000
3519,505.000000
3520,504.000000
3521,506.500000
3522,503.000000
3523,504.500000
3524,504.000000
3525,505.500000
3526,504.500000
3527,504.000000
3528,504.500000
3529,505.000000
3530,507.000000
3531,505.000000
3532,502.000000
3533,504.000000
3534,507.500000
3535,505.000000
3536,504.000000
3537,503.000000
3538,505.500000
3539,502.000000
3540,503.000000
3541,503.500000
3542,504.500000
3543,502.500000
3544,506.000000
3545,506.000000
3546,506.000000
3547,504.500000
3548,501.500000
3549,504.500000
3550,503.000000
3551,503.000000
3552,502.000000
3553,504.000000
3554,502.500000
3555,503.500000
3556,504.000000
3557,503.500000
3558,504.000000
3559,505.000000
3560,502.000000
3561,503.000000
3562,505.000000
3563,504.500000
3564,505.000000
3565,504.500000
3566,504.000000
3567,503.500000
3568,504.500000
3569,504.000000
3570,506.000000
3571,505.000000
3572,505.500000
3573,507.500000
3574,503.500000
3575,504.000000
3576,502.500000
3577,506.500000
3578,504.500000
3579,505.500000
3580,504.500000
3581,504.000000
3582,505.000000
3583,506.000000
3584,504.500000
3585,506.500000
3586,504.000000
3587,504.500000
3588,505.000000
3589,505.500000
3590,503.500000
3591,505.500000
3592,504.000000
3593,504.000000
3594,502.000000
3595,504.500000
3596,503.500000
3597,503.500000
3598,503.500000
3599,505.500000
3600,502.500000
3601,504.000000
3602,504.500000
3603,503.000000
3604,505.500000
3605,503.000000
3606,504.000000
3607,502.500000
3608,507.000000
3609,505.000000
3610,502.500000
3611,506.000000
3612,504.500000
3613,505.000000
3614,503.000000
3615,507.000000
3616,503.500000
3617,504.500000
3618,503.000000
3619,503.500000
3620,505.500000
3621,502.500000
3622,504.500000
3623,504.500000
3624,504.000000
3625,502.000000
3626,504.000000
3627,504.500000
3628,505.000000
3629,504.000000
3630,508.000000
3631,505.000000
3632,501.500000
3633,504.000000
3634,502.500000
3635,504.500000
3636,502.000000
3637,503.500000
3638,502.000000
3639,504.500000
3640,503.000000
3641,505.000000
3642,503.000000
3643,504.000000
3644,503.000000
3645,503.000000
3646,503.500000
3647,504.500000
3648,504.000000
3649,503.500000
3650,505.500000
3651,505.000000
3652,503.500000
3653,504.000000
3654,505.500000
3655,504.000000
3656,501.000000
3657,506.000000
3658,504.000000
3659,505.000000
3660,504.000000
3661,503.500000
3662,504.500000
3663,502.500000
3664,503.500000
3665,500.500000
3666,503.500000
3667,503.500000
3668,502.500000
3669,505.500000
3670,504.500000
3671,502.500000
3672,505.500000
3673,503.000000
3674,504.000000
3675,504.500000
3676,502.000000
3677,504.500000
3678,505.000000
3679,502.000000
3680,503.500000
3681,503.500000
3682,503.000000
3683,505.000000
3684,503.500000
3685,504.000000
3686,505.000000
3687,505.000000
3688,505.500000
3689,503.500000
3690,504.000000
3691,503.500000
3692,504.000000
3693,502.500000
3694,504.500000
3695,504.000000
3696,504.500000
3697,503.000000
3698,504.000000
3699,504.000000
3700,503.000000
3701,501.000000
3702,504.500000
3703,505.000000
3704,502.500000
3705,504.500000
3706,505.000000
3707,503.000000
3708,504.000000
3709,500.500000
3710,502.000000
3711,503.000000
3712,503.500000
3713,502.500000
3714,503.500000
3715,503.000000
3716,504.500000
3717,503.500000
3718,504.000000
3719,503.000000
3720,501.500000
3721,503.500000
3722,503.000000
3723,503.000000
3724,504.500000
3725,505.000000
3726,504.500000
3727,501.500000
3728,505.000000
3729,502.500000
3730,503.500000
3731,503.500000
3732,505.000000
3733,502.000000
3734,502.000000
3735,504.000000
3736,502.500000
3737,501.500000
3738,504.500000
3739,504.000000
3740,501.500000
3741,503.500000
3742,501.000000
3743,505.000000
3744,500.500000
3745,503.500000
3746,503.000000
3747,505.500000
3748,502.000000
3749,503.500000
3750,503.500000
3751,501.500000
3752,502.500000
3753,501.500000
3754,503.500000
3755,501.500000
3756,503.500000
3757,500.000000
3758,503.500000
3759,502.000000
3760,503.000000
3761,503.000000
3762,504.000000
3763,504.000000
3764,500.500000
3765,502.000000
3766,503.000000
3767,502.000000
3768,501.500000
3769,504.000000
3770,502.500000
3771,503.500000
3772,502.500000
3773,503.000000
3774,503.500000
3775,503.000000
3776,503.500000
3777,504.500000
3778,500.500000
3779,502.000000
3780,503.000000
3781,504.500000
3782,502.500000
3783,502.500000
3784,501.000000
3785,501.500000
3786,501.000000
3787,504.500000
3788,502.000000
3789,502.000000
3790,502.000000
3791,500.500000
3792,504.000000
3793,501.500000
3794,503.000000
3795,503.500000
3796,503.500000
3797,503.500000
3798,499.500000
3799,506.000000
3800,503.000000
3801,501.000000
3802,500.000000
3803,503.500000
3804,501.500000
3805,503.000000
3806,502.500000
3807,503.000000
3808,504.000000
3809,503.000000
3810,502.000000
3811,501.000000
3812,501.000000
3813,502.500000
3814,505.000000
3815,501.000000
3816,502.500000
3817,502.000000
3818,503.000000
3819,503.000000
3820,501.500000
3821,503.500000
3822,500.500000
3823,504.500000
3824,502.500000
3825,501.500000
3826,503.000000
3827,505.000000
3828,502.000000
3829,505.000000
3830,503.500000
3831,502.500000
3832,504.000000
3833,501.500000
3834,503.000000
3835,502.500000
3836,503.000000
3837,503.500000
3838,503.000000
3839,504.000000
3840,502.000000
3841,503.500000
3842,503.000000
3843,504.500000
3844,505.500000
3845,502.000000
3846,502.500000
3847,502.500000
3848,501.500000
3849,502.000000
3850,504.000000
3851,503.500000
3852,502.500000
3853,503.000000
3854,504.000000
3855,503.000000
3856,502.000000
3857,502.500000
3858,502.000000
3859,503.500000
3860,506.000000
3861,503.000000
3862,503.500000
3863,503.000000
3864,503.500000
3865,502.500000
3866,503.500000
3867,502.500000
3868,502.500000
3869,501.500000
3870,502.500000
3871,501.500000
3872,502.500000
3873,504.000000
3874,504.000000
3875,505.000000
3876,504.500000
3877,502.500000
3878,503.000000
3879,503.500000
3880,501.000000
3881,504.000000
3882,503.500000
3883,504.000000
3884,503.500000
3885,504.000000
3886,503.000000
3887,503.500000
3888,503.000000
3889,502.000000
3890,501.500000
3891,501.500000
3892,502.000000
3893,500.000000
3894,502.500000
3895,501.000000
3896,504.000000
3897,501.500000
3898,505.000000
3899,501.500000
3900,503.500000
3901,505.500000
3902,500.500000
3903,502.000000
3904,501.500000
3905,503.500000
3906,501.000000
3907,502.000000
3908,501.000000
3909,503.000000
3910,502.500000
3911,504.000000
3912,502.500000
3913,504.500000
3914,503.000000
3915,501.500000
3916,502.000000
3917,503.000000
3918,504.500000
3919,501.500000
3920,502.000000
3921,503.000000
3922,500.500000
3923,503.000000
3924,501.500000
3925,501.000000
3926,505.500000
3927,501.000000
3928,502.000000
3929,503.000000
3930,501.000000
3931,503.500000
3932,503.000000
3933,502.000000
3934,501.500000
3935,502.000000
3936,501.500000
3937,503.000000
3938,502.000000
3939,501.500000
3940,503.500000
3941,501.500000
3942,501.500000
3943,501.500000
3944,503.000000
3945,500.500000
3946,504.000000
3947,503.000000
3948,502.000000
3949,503.500000
3950,501.500000
3951,504.500000
3952,502.500000
3953,499.000000
3954,503.500000
3955,503.000000
3956,503.500000
3957,500.000000
3958,498.500000
3959,503.500000
3960,500.000000
3961,503.000000
3962,501.000000
3963,502.500000
3964,500.500000
3965,503.500000
3966,503.000000
3967,505.000000
3968,501.500000
3969,501.500000
3970,503.000000
3971,503.500000
3972,503.500000
3973,503.000000
3974,504.500000
3975,502.500000
3976,500.000000
3977,503.500000
3978,503.500000
3979,501.000000
3980,503.500000
3981,504.000000
3982,505.000000
3983,503.500000
3984,502.500000
3985,504.000000
3986,504.000000
3987,503.000000
3988,502.000000
3989,504.000000
3990,503.000000
3991,503.000000
3992,499.000000
3993,502.500000
3994,502.500000
3995,503.500000
3996,503.500000
3997,502.000000
3998,503.500000
3999,503.500000
4000,501.500000
4001,501.500000
4002,501.000000
4003,505.000000
4004,501.000000
4005,505.500000
4006,501.500000
4007,504.000000
4008,502.000000
4009,502.500000
4010,503.500000
4011,504.500000
4012,502.500000
4013,501.000000
4014,503.000000
4015,503.500000
4016,501.500000
4017,502.500000
4018,503.500000
4019,501.500000
4020,502.500000
4021,501.000000
4022,501.000000
4023,502.500000
4024,500.000000
4025,503.000000
4026,501.500000
4027,501.500000
4028,503.500000
4029,500.500000
4030,502.000000
4031,504.000000
4032,503.500000
4033,503.000000
4034,503.000000
4035,501.500000
4036,502.500000
4037,500.000000
4038,503.000000
4039,501.500000
4040,503.000000
4041,503.500000
4042,504.500000
4043,502.500000
4044,503.000000
4045,502.500000
4046,501.000000
4047,502.500000
4048,499.500000
4049,501.000000
4050,503.500000
4051,500.500000
4052,504.500000
4053,502.500000
4054,502.500000
4055,502.000000
4056,502.000000
4057,502.500000
4058,503.000000
4059,503.500000
4060,499.500000
4061,503.500000
4062,502.000000
4063,503.000000
4064,503.000000
4065,503.000000
4066,503.000000
4067,504.000000
4068,503.000000
4069,502.500000
4070,503.500000
4071,501.500000
4072,501.500000
4073,505.000000
4074,502.500000
4075,502.500000
4076,502.000000
4077,501.500000
4078,504.000000
4079,507.500000
4080,503.000000
4081,502.500000
4082,502.000000
4083,504.000000
4084,503.000000
4085,505.000000
4086,504.500000
4087,503.500000
4088,501.000000
4089,503.000000
4090,504.000000
4091,504.000000
4092,502.000000
4093,501.500000
4094,500.000000
4095,503.000000
4096,501.500000
4097,503.000000
4098,501.500000
4099,-509.000000
4100,-505.500000
4101,-505.000000
4102,-503.500000
4103,-505.000000
4104,-502.500000
4105,-503.000000
4106,-502.500000
4107,-502.500000
4108,-505.500000
4109,-503.000000
4110,-504.500000
4111,-504.000000
4112,-507.500000
4113,-505.500000
4114,-505.000000
4115,-506.500000
4116,-506.500000
4117,-506.500000
4118,-509.000000
4119,-505.000000
4120,-507.500000
4121,-507.500000
4122,-507.500000
4123,-507.000000
4124,-508.000000
4125,-507.500000
4126,-507.500000
4127,-508.000000
4128,-509.000000
4129,-509.000000
4130,-508.500000
4131,-507.000000
4132,-505.500000
4133,-507.000000
4134,-506.000000
4135,-507.000000
4136,-508.500000
4137,-508.500000
4138,-507.500000
4139,-507.000000
4140,-506.500000
4141,-506.500000
4142,-509.000000
4143,-509.000000
4144,-505.000000
4145,-504.500000
4146,-507.000000
4147,-506.500000
4148,-507.500000
4149,-505.500000
4150,-507.500000
4151,-508.000000
4152,-506.500000
4153,-507.500000
4154,-505.500000
4155,-505.500000
4156,-504.500000
4157,-507.000000
4158,-502.500000
4159,-506.500000
4160,-502.500000
4161,-507.500000
4162,-506.500000
4163,-504.000000
4164,-504.000000
4165,-507.500000
4166,-506.000000
4167,-506.000000
4168,-506.000000
4169,-505.500000
4170,-505.500000
4171,-508.000000
4172,-506.000000
4173,-504.000000
4174,-506.000000
4175,-506.500000
4176,-504.500000
4177,-506.000000
4178,-504.500000
4179,-506.000000
4180,-505.500000
4181,-506.000000
4182,-503.500000
4183,-506.500000
4184,-504.500000
4185,-505.500000
4186,-504.000000
4187,-503.000000
4188,-503.500000
4189,-504.000000
4190,-503.500000
4191,-503.500000
4192,-504.000000
4193,-505.000000
4194,-505.500000
4195,-504.500000
4196,-504.500000
4197,-503.500000
4198,-504.000000
4199,-504.500000
4200,-503.500000
4201,-503.000000
4202,-502.500000
4203,-503.500000
4204,-503.000000
4205,-501.000000
4206,-505.500000
4207,-502.000000
4208,-505.000000
4209,-502.500000
4210,-507.500000
4211,-504.000000
4212,-504.500000
4213,-503.000000
4214,-502.500000
4215,-504.500000
4216,-504.500000
4217,-504.000000
4218,-504.500000
4219,-505.000000
4220,-503.000000
4221,-504.000000
4222,-503.000000
4223,-503.500000
4224,-501.500000
4225,-502.000000
4226,-503.000000
4227,-500.500000
4228,-504.500000
4229,-504.000000
4230,-505.500000
4231,-502.500000
4232,-503.000000
4233,-500.000000
4234,-502.000000
4235,-501.500000
4236,-503.500000
4237,-501.500000
4238,-502.500000
4239,-504.500000
4240,-501.500000
4241,-502.000000
4242,-501.500000
4243,-504.500000
4244,-500.500000
4245,-504.000000
4246,-502.500000
4247,-502.000000
4248,-502.000000
4249,-501.500000
4250,-501.000000
4251,-503.500000
4252,-502.000000
4253,-499.500000
4254,-503.000000
4255,-503.000000
4256,-503.000000
4257,-501.000000
4258,-501.000000
4259,-502.500000
4260,-502.000000
4261,-502.500000
4262,-503.000000
4263,-502.000000
4264,-504.000000
4265,-502.500000
4266,-499.500000
4267,-500.500000
4268,-503.000000
4269,-500.500000
4270,-501.000000
4271,-502.500000
4272,-502.000000
4273,-499.500000
4274,-501.500000
4275,-504.500000
4276,-500.500000
4277,-499.000000
4278,-501.000000
4279,-500.500000
4280,-501.500000
4281,-501.500000
4282,-499.500000
4283,-502.000000
4284,-497.500000
4285,-499.000000
4286,-500.500000
4287,-499.000000
4288,-500.000000
4289,-501.000000
4290,-499.000000
4291,-499.500000
4292,-501.500000
4293,-498.500000
4294,-500.000000
4295,-501.000000
4296,-497.500000
4297,-501.500000
4298,-501.500000
4299,-500.000000
4300,-499.000000
4301,-500.000000
4302,-498.000000
4303,-498.000000
4304,-501.000000
4305,-500.500000
4306,-499.000000
4307,-500.500000
4308,-501.000000
4309,-500.000000
4310,-498.500000
4311,-501.500000
4312,-499.500000
4313,-501.000000
4314,-499.500000
4315,-502.000000
4316,-499.000000
4317,-499.000000
4318,-499.500000
4319,-499.500000
4320,-499.500000
4321,-499.000000
4322,-499.500000
4323,-496.500000
4324,-499.500000
4325,-499.500000
4326,-498.000000
4327,-500.000000
4328,-498.000000
4329,-500.500000
4330,-497.500000
4331,-500.500000
4332,-498.500000
4333,-499.000000
4334,-500.000000
4335,-501.500000
4336,-499.500000
4337,-500.000000
4338,-499.500000
4339,-501.500000
4340,-498.500000
4341,-498.500000
4342,-498.000000
4343,-497.500000
4344,-499.000000
4345,-499.000000
4346,-500.000000
4347,-497.000000
4348,-498.500000
4349,-500.000000
4350,-495.500000
4351,-499.000000
4352,-499.500000
4353,-500.000000
4354,-497.500000
4355,-497.000000
4356,-498.500000
4357,-498.500000
4358,-500.000000
4359,-497.500000
4360,-500.500000
4361,-497.000000
4362,-499.500000
4363,-498.000000
4364,-500.500000
4365,-500.000000
4366,-499.500000
4367,-501.000000
4368,-497.500000
4369,-500.000000
4370,-501.000000
4371,-501.000000
4372,-498.500000
4373,-501.000000
4374,-496.000000
4375,-499.500000
4376,-500.000000
4377,-498.000000
4378,-498.000000
4379,-499.500000
4380,-501.000000
4381,-499.000000
4382,-499.000000
4383,-500.500000
4384,-498.500000
4385,-497.500000
4386,-500.000000
4387,-497.500000
4388,-499.500000
4389,-499.000000
4390,-497.000000
4391,-498.500000
4392,-498.500000
4393,-498.500000
4394,-497.000000
4395,-500.500000
4396,-494.000000
4397,-499.000000
4398,-498.500000
4399,-497.000000
4400,-497.000000
4401,-498.000000
4402,-498.000000
4403,-498.500000
4404,-500.500000
4405,-497.000000
4406,-500.500000
4407,-497.500000
4408,-499.500000
4409,-499.000000
4410,-498.000000
4411,-497.000000
4412,-496.500000
4413,-497.000000
4414,-499.000000
4415,-496.500000
4416,-499.000000
4417,-498.000000
4418,-497.500000
4419,-497.500000
4420,-500.000000
4421,-499.000000
4422,-500.000000
4423,-500.000000
4424,-500.500000
4425,-497.000000
4426,-498.000000
4427,-498.000000
4428,-497.500000
4429,-498.500000
4430,-497.000000
4431,-499.000000
4432,-499.000000
4433,-498.000000
4434,-499.000000
4435,-497.500000
4436,-498.000000
4437,-498.000000
4438,-498.000000
4439,-499.500000
4440,-497.000000
4441,-501.500000
4442,-499.000000
4443,-499.500000
4444,-499.000000
4445,-500.500000
4446,-499.000000
4447,-497.500000
4448,-497.500000
4449,-499.500000
4450,-500.000000
4451,-498.000000
4452,-499.500000
4453,-496.000000
4454,-497.500000
4455,-498.000000
4456,-497.500000
4457,-499.000000
4458,-497.500000
4459,-499.000000
4460,-496.500000
4461,-498.500000
4462,-498.500000
4463,-497.500000
4464,-497.500000
4465,-498.000000
4466,-498.500000
4467,-496.000000
4468,-497.500000
4469,-497.000000
4470,-498.000000
4471,-496.500000
4472,-497.000000
4473,-498.500000
4474,-497.500000
4475,-499.500000
4476,-497.000000
4477,-497.000000
4478,-497.000000
4479,-500.000000
4480,-499.000000
4481,-496.500000
4482,-498.500000
4483,-497.500000
4484,-496.500000
4485,-499.500000
4486,-498.000000
4487,-497.000000
4488,-496.000000
4489,-500.000000
4490,-496.500000
4491,-498.500000
4492,-498.000000
4493,-499.000000
4494,-498.000000
4495,-497.000000
4496,-498.500000
4497,-498.500000
4498,-498.500000
4499,-499.500000
4500,-496.500000
4501,-497.500000
4502,-497.500000
4503,-497.000000
4504,-495.500000
4505,-494.500000
4506,-499.000000
4507,-497.000000
4508,-499.000000
4509,-496.500000
4510,-498.500000
4511,-499.000000
4512,-499.000000
4513,-498.000000
4514,-494.500000
4515,-497.500000
4516,-494.000000
4517,-498.500000
4518,-495.500000
4519,-497.500000
4520,-497.000000
4521,-496.000000
4522,-494.500000
4523,-495.000000
4524,-495.000000
4525,-496.000000
4526,-497.000000
4527,-495.500000
4528,-496.500000
4529,-500.000000
4530,-497.500000
4531,-496.500000
4532,-494.500000
4533,-496.500000
4534,-497.500000
4535,-496.500000
4536,-498.500000
4537,-497.500000
4538,-500.500000
4539,-495.500000
4540,-497.000000
4541,-497.000000
4542,-495.500000
4543,-498.500000
4544,-496.000000
4545,-498.000000
4546,-498.500000
4547,-496.500000
4548,-500.000000
4549,-496.000000
4550,-496.500000
4551,-497.500000
4552,-497.500000
4553,-499.000000
4554,-496.500000
4555,-498.500000
4556,-498.500000
4557,-496.500000
4558,-498.000000
4559,-497.000000
4560,-500.000000
4561,-497.000000
4562,-496.500000
4563,-497.000000
4564,-497.000000
4565,-495.500000
4566,-495.000000
4567,-497.500000
4568,-496.000000
4569,-497.000000
4570,-497.500000
4571,-499.500000
4572,-495.500000
4573,-495.000000
4574,-496.500000
4575,-494.500000
4576,-498.000000
4577,-496.000000
4578,-496.500000
4579,-495.000000
4580,-494.500000
4581,-496.500000
4582,-497.500000
4583,-498.500000
4584,-494.000000
4585,-497.000000
4586,-497.500000
4587,-496.000000
4588,-496.500000
4589,-497.000000
4590,-498.000000
4591,-498.000000
4592,-497.000000
4593,-497.000000
4594,-494.500000
4595,-496.500000
4596,-495.500000
4597,-496.000000
4598,-495.000000
4599,-497.000000
4600,-498.500000
4601,-498.500000
4602,-498.000000
4603,-497.000000
4604,-497.000000
4605,-496.500000
4606,-498.500000
4607,-499.000000
4608,-495.500000
4609,-497.500000
4610,-498.500000
4611,-497.500000
4612,-497.500000
4613,-498.500000
4614,-498.000000
4615,-498.500000
4616,-498.000000
4617,-497.500000
4618,-496.500000
4619,-497.000000
4620,-496.500000
4621,-496.000000
4622,-497.500000
4623,-496.000000
4624,-497.000000
4625,-498.500000
4626,-496.500000
4627,-497.000000
4628,-496.000000
4629,-497.000000
4630,-496.000000
4631,-493.000000
4632,-498.000000
4633,-497.000000
4634,-498.000000
4635,-496.500000
4636,-498.000000
4637,-496.000000
4638,-497.500000
4639,-495.000000
4640,-496.000000
4641,-498.000000
4642,-495.000000
4643,-494.500000
4644,-496.500000
4645,-495.500000
4646,-496.500000
4647,-495.500000
4648,-499.000000
4649,-496.500000
4650,-495.500000
4651,-500.500000
4652,-494.500000
4653,-496.000000
4654,-497.000000
4655,-495.000000
4656,-497.500000
4657,-497.000000
4658,-499.000000
4659,-498.000000
4660,-495.500000
4661,-495.000000
4662,-494.500000
4663,-494.500000
4664,-495.500000
4665,-496.500000
4666,-493.500000
4667,-494.500000
4668,-496.500000
4669,-495.500000
4670,-496.000000
4671,-498.000000
4672,-497.000000
4673,-495.500000
4674,-494.000000
4675,-497.000000
4676,-495.500000
4677,-496.000000
4678,-496.500000
4679,-495.000000
4680,-496.500000
4681,-494.500000
4682,-498.000000
4683,-496.500000
4684,-495.500000
4685,-493.500000
4686,-494.500000
4687,-494.500000
4688,-493.000000
4689,-494.000000
4690,-495.500000
4691,-496.500000
4692,-496.000000
4693,-496.500000
4694,-496.500000
4695,-496.000000
4696,-498.000000
4697,-496.000000
4698,-496.000000
4699,-495.500000
4700,-497.000000
4701,-495.500000
4702,-497.500000
4703,-497.500000
4704,-495.000000
4705,-498.500000
4706,-496.000000
4707,-497.000000
4708,-496.000000
4709,-496.500000
4710,-495.000000
4711,-497.000000
4712,-495.500000
4713,-497.000000
4714,-496.500000
4715,-495.500000
4716,-495.000000
4717,-498.000000
4718,-499.000000
4719,-495.500000
4720,-497.500000
4721,-498.500000
4722,-496.500000
4723,-496.500000
4724,-494.500000
4725,-495.500000
4726,-498.000000
4727,-498.000000
4728,-495.500000
4729,-497.000000
4730,-496.500000
4731,-497.500000
4732,-496.500000
4733,-499.000000
4734,-497.000000
4735,-496.000000
4736,-498.000000
4737,-497.000000
4738,-496.500000
4739,-498.000000
4740,-497.000000
4741,-498.500000
4742,-496.500000
4743,-496.000000
4744,-497.500000
4745,-495.000000
4746,-497.500000
4747,-495.500000
4748,-495.000000
4749,-495.500000
4750,-497.500000
4751,-497.500000
4752,-496.500000
4753,-497.000000
4754,-496.000000
4755,-493.500000
4756,-496.000000
4757,-497.000000
4758,-497.500000
4759,-497.000000
4760,-496.500000
4761,-493.500000
4762,-496.000000
4763,-495.000000
4764,-496.500000
4765,-494.000000
4766,-497.000000
4767,-495.500000
4768,-497.000000
4769,-497.500000
4770,-495.500000
4771,-496.000000
4772,-498.500000
4773,-497.000000
4774,-494.000000
4775,-495.000000
4776,-496.500000
4777,-495.500000
4778,-496.500000
4779,-497.500000
4780,-499.000000
4781,-495.000000
4782,-494.500000
4783,-498.000000
4784,-497.000000
4785,-497.000000
4786,-497.000000
4787,-494.500000
4788,-496.500000
4789,-495.500000
4790,-496.500000
4791,-496.500000
4792,-495.000000
4793,-496.000000
4794,-496.000000
4795,-498.000000
4796,-496.000000
4797,-494.500000
4798,-495.000000
4799,-495.500000
4800,-497.500000
4801,-494.000000
4802,-496.000000
4803,-497.000000
4804,-497.500000
4805,-495.000000
4806,-496.000000
4807,-496.000000
4808,-497.000000
4809,-495.500000
4810,-497.000000
4811,-495.500000
4812,-494.500000
4813,-494.500000
4814,-495.500000
4815,-495.500000
4816,-494.500000
4817,-495.000000
4818,-494.000000
4819,-496.500000
4820,-496.000000
4821,-497.000000
4822,-498.000000
4823,-498.000000
4824,-495.500000
4825,-494.500000
4826,-496.500000
4827,-494.000000
4828,-496.500000
4829,-495.000000
4830,-497.500000
4831,-496.500000
4832,-494.500000
4833,-497.000000
4834,-494.500000
4835,-494.500000
4836,-492.500000
4837,-498.000000
4838,-493.500000
4839,-495.500000
4840,-494.000000
4841,-496.500000
4842,-496.000000
4843,-495.000000
4844,-496.000000
4845,-496.000000
4846,-497.500000
4847,-493.000000
4848,-497.500000
4849,-496.500000
4850,-495.500000
4851,-496.500000
4852,-498.500000
4853,-495.500000
4854,-497.000000
4855,-495.500000
4856,-494.000000
4857,-496.500000
4858,-496.000000
4859,-496.500000
4860,-495.000000
4861,-499.500000
4862,-497.500000
4863,-496.000000
4864,-494.500000
4865,-494.000000
4866,-497.000000
4867,-495.500000
4868,-496.500000
4869,-495.500000
4870,-497.000000
4871,-496.500000
4872,-496.500000
4873,-496.500000
4874,-492.500000
4875,-499.000000
4876,-495.500000
4877,-496.500000
4878,-498.000000
4879,-496.500000
4880,-496.000000
4881,-498.500000
4882,-495.000000
4883,-497.000000
4884,-496.000000
4885,-497.000000
4886,-496.500000
4887,-496.500000
4888,-496.000000
4889,-497.500000
4890,-495.500000
4891,-496.500000
4892,-498.000000
4893,-498.000000
4894,-498.500000
4895,-497.000000
4896,-495.500000
4897,-494.000000
4898,-498.500000
4899,-495.500000
4900,-496.000000
4901,-498.000000
4902,-496.500000
4903,-497.000000
4904,-495.500000
4905,-495.000000
4906,-497.000000
4907,-498.000000
4908,-497.000000
4909,-494.500000
4910,-496.000000
4911,-495.000000
4912,-496.000000
4913,-494.500000
4914,-496.500000
4915,-495.000000
4916,-494.500000
4917,-497.000000
4918,-497.500000
4919,-497.500000
4920,-496.000000
4921,-496.500000
4922,-497.500000
4923,-496.500000
4924,-494.500000
4925,-496.500000
4926,-495.500000
4927,-497.000000
4928,-495.500000
4929,-494.500000
4930,-498.000000
4931,-494.500000
4932,-496.500000
4933,-497.000000
4934,-495.000000
4935,-495.500000
4936,-495.000000
4937,-496.500000
4938,-496.000000
4939,-495.000000
4940,-497.500000
4941,-499.500000
4942,-495.000000
4943,-495.500000
4944,-494.500000
4945,-496.500000
4946,-495.500000
4947,-496.000000
4948,-498.000000
4949,-496.000000
4950,-494.000000
4951,-495.500000
4952,-494.000000
4953,-495.500000
4954,-495.500000
4955,-495.000000
4956,-495.500000
4957,-493.500000
4958,-496.500000
4959,-493.500000
4960,-499.500000
4961,-496.500000
4962,-496.000000
4963,-497.000000
4964,-496.500000
4965,-497.000000
4966,-492.500000
4967,-493.500000
4968,-494.500000
4969,-495.000000
4970,-494.000000
4971,-495.500000
4972,-496.000000
4973,-494.500000
4974,-494.500000
4975,-498.500000
4976,-496.500000
4977,-495.000000
4978,-498.000000
4979,-494.000000
4980,-496.500000
4981,-495.500000
4982,-494.000000
4983,-497.000000
4984,-495.500000
4985,-495.500000
4986,-497.000000
4987,-496.500000
4988,-495.000000
4989,-495.500000
4990,-495.500000
4991,-496.000000
4992,517.000000
4993,513.500000
4994,513.500000
4995,508.500000
4996,510.500000
4997,508.000000
4998,509.500000
4999,509.000000
5000,511.000000
5001,511.500000
5002,512.000000
5003,510.500000
5004,509.000000
5005,513.500000
5006,513.500000
5007,513.000000
5008,512.000000
5009,513.500000
5010,513.000000
5011,516.000000
5012,512.500000
5013,516.000000
5014,514.000000
5015,515.000000
5016,512.500000
5017,516.000000
5018,511.500000
5019,515.500000
5020,514.000000
5021,516.500000
5022,514.500000
5023,514.000000
5024,515.000000
5025,513.500000
5026,517.000000
5027,517.000000
5028,514.000000
5029,516.000000
5030,513.500000
5031,511.500000
5032,514.000000
5033,513.500000
5034,512.500000
5035,515.000000
5036,513.500000
5037,515.500000
5038,512.500000
5039,515.500000
5040,515.500000
5041,516.500000
5042,514.500000
5043,515.000000
5044,514.000000
5045,513.500000
5046,513.500000
5047,510.500000
5048,514.500000
5049,513.500000
5050,513.000000
5051,513.000000
5052,514.500000
5053,513.500000
5054,513.500000
5055,514.500000
5056,515.500000
5057,512.500000
5058,512.500000
5059,510.500000
5060,513.000000
5061,510.500000
5062,513.500000
5063,514.500000
5064,513.500000
5065,514.500000
5066,513.500000
5067,514.500000
5068,512.500000
5069,513.500000
5070,511.500000
5071,514.000000
5072,515.500000
5073,512.000000
5074,513.500000
5075,513.000000
5076,513.500000
5077,511.000000
5078,510.000000
5079,511.500000
5080,511.000000
5081,510.500000
5082,512.000000
5083,511.500000
5084,509.500000
5085,511.000000
5086,510.500000
5087,511.500000
5088,511.000000
5089,511.000000
5090,513.000000
5091,512.000000
5092,510.500000
5093,511.000000
5094,511.000000
5095,509.500000
5096,511.000000
5097,509.500000
5098,509.000000
5099,509.500000
5100,509.500000
5101,511.000000
5102,509.000000
5103,511.000000
5104,511.000000
5105,510.500000
5106,512.500000
5107,511.500000
5108,509.500000
5109,512.000000
5110,509.500000
5111,509.500000
5112,510.000000
5113,509.500000
5114,511.000000
5115,509.000000
5116,509.500000
5117,509.000000
5118,508.500000
5119,509.000000
5120,508.500000
5121,508.500000
5122,510.000000
5123,510.500000
5124,509.000000
5125,508.500000
5126,510.000000
5127,508.500000
5128,508.500000
5129,507.500000
5130,509.500000
5131,509.000000
5132,509.500000
5133,506.000000
5134,511.000000
5135,508.500000
5136,509.500000
5137,509.500000
5138,509.000000
5139,509.000000
5140,510.000000
5141,508.000000
5142,511.000000
5143,508.500000
5144,507.000000
5145,509.000000
5146,507.000000
5147,508.500000
5148,508.000000
5149,509.000000
5150,509.000000
5151,508.500000
5152,508.500000
5153,507.000000
5154,507.000000
5155,505.000000
5156,509.500000
5157,507.500000
5158,508.000000
5159,507.500000
5160,506.000000
5161,506.500000
5162,508.000000
5163,504.000000
5164,506.500000
5165,508.000000
5166,508.000000
5167,505.500000
5168,504.500000
5169,507.500000
5170,507.500000
5171,508.000000
5172,503.500000
5173,507.000000
5174,505.500000
5175,507.500000
5176,507.500000
5177,507.000000
5178,506.500000
5179,505.500000
5180,506.000000
5181,505.500000
5182,506.000000
5183,506.500000
5184,507.000000
5185,507.000000
5186,508.500000
5187,506.000000
5188,505.000000
5189,507.000000
5190,503.500000
5191,508.500000
5192,507.000000
5193,507.000000
5194,506.000000
5195,506.000000
5196,508.000000
5197,505.000000
5198,505.500000
5199,506.000000
5200,505.500000
5201,507.000000
5202,508.000000
5203,505.500000
5204,507.500000
5205,505.000000
5206,507.500000
5207,506.500000
5208,505.500000
5209,506.500000
5210,506.000000
5211,507.500000
5212,506.500000
5213,507.000000
5214,507.000000
5215,508.000000
5216,507.000000
5217,506.000000
5218,507.500000
5219,507.000000
5220,509.000000
5221,504.500000
5222,506.500000
5223,507.500000
5224,504.500000
5225,505.500000
5226,504.500000
5227,506.500000
5228,504.500000
5229,506.500000
5230,508.000000
5231,505.500000
5232,505.000000
5233,505.500000
5234,504.500000
5235,506.500000
5236,505.000000
5237,504.500000
5238,506.000000
5239,505.500000
5240,507.000000
5241,504.500000
5242,504.500000
5243,505.500000
5244,505.000000
5245,504.500000
5246,505.000000
5247,505.500000
5248,505.000000
5249,506.500000
5250,503.500000
5251,508.000000
5252,504.500000
5253,507.000000
5254,507.500000
5255,507.500000
5256,505.000000
5257,506.000000
5258,505.500000
5259,503.500000
5260,505.500000
5261,504.500000
5262,502.500000
5263,505.500000
5264,507.500000
5265,507.500000
5266,504.500000
5267,506.500000
5268,505.500000
5269,506.000000
5270,508.500000
5271,506.500000
5272,505.500000
5273,506.000000
5274,507.000000
5275,508.000000
5276,505.500000
5277,506.500000
5278,504.000000
5279,505.500000
5280,504.500000
5281,507.500000
5282,505.500000
5283,506.500000
5284,505.000000
5285,503.500000
5286,508.500000
5287,506.500000
5288,507.000000
5289,506.500000
5290,503.500000
5291,505.000000
5292,506.000000
5293,506.000000
5294,507.000000
5295,508.000000
5296,505.000000
5297,505.500000
5298,502.500000
5299,504.500000
5300,506.000000
5301,505.500000
5302,505.500000
5303,505.000000
5304,504.500000
5305,504.000000
5306,504.500000
5307,504.500000
5308,503.500000
5309,504.500000
5310,505.000000
5311,506.500000
5312,503.500000
5313,504.500000
5314,506.000000
5315,506.000000
5316,503.500000
5317,504.000000
5318,503.000000
5319,504.000000
5320,502.500000
5321,504.500000
5322,504.000000
5323,502.000000
5324,503.500000
5325,503.500000
5326,505.500000
5327,503.500000
5328,505.500000
5329,505.000000
5330,505.000000
5331,503.500000
5332,504.000000
5333,506.000000
5334,504.000000
5335,504.000000
5336,503.000000
5337,502.500000
5338,504.500000
5339,504.500000
5340,504.000000
5341,508.000000
5342,505.000000
5343,503.500000
5344,504.000000
5345,504.000000
5346,503.500000
5347,502.500000
5348,506.500000
5349,502.500000
5350,505.000000
5351,504.500000
5352,503.500000
5353,504.000000
5354,505.500000
5355,506.000000
5356,504.500000
5357,504.000000
5358,504.500000
5359,504.000000
5360,502.500000
5361,500.500000
5362,505.000000
5363,504.500000
5364,505.000000
5365,505.000000
5366,504.000000
5367,504.000000
5368,503.500000
5369,501.500000
5370,505.500000
5371,501.500000
5372,500.500000
5373,501.500000
5374,503.500000
5375,503.500000
5376,501.500000
5377,502.000000
5378,501.000000
5379,505.500000
5380,503.000000
5381,502.000000
5382,503.500000
5383,503.500000
5384,500.500000
5385,503.500000
5386,503.000000
5387,503.000000
5388,504.000000
5389,503.500000
5390,505.500000
5391,505.500000
5392,505.000000
5393,504.500000
5394,503.500000
5395,503.500000
5396,505.000000
5397,500.500000
5398,503.000000
5399,504.500000
5400,503.500000
5401,503.000000
5402,502.500000
5403,506.000000
5404,504.000000
5405,503.000000
5406,505.000000
5407,503.000000
5408,503.000000
5409,503.500000
5410,506.000000
5411,504.000000
5412,504.000000
5413,502.000000
5414,503.000000
5415,503.500000
5416,501.500000
5417,503.000000
5418,502.500000
5419,503.000000
5420,503.000000
5421,504.500000
5422,500.500000
5423,502.500000
5424,501.500000
5425,502.000000
5426,506.000000
5427,504.000000
5428,504.500000
5429,504.000000
5430,502.500000
5431,504.000000
5432,502.000000
5433,503.000000
5434,501.500000
5435,503.500000
5436,502.500000
5437,504.000000
5438,506.500000
5439,504.500000
5440,503.500000
5441,504.000000
5442,500.500000
5443,502.500000
5444,504.500000
5445,504.500000
5446,504.500000
5447,503.000000
5448,504.000000
5449,504.500000
5450,503.000000
5451,502.000000
5452,503.000000
5453,504.000000
5454,504.500000
5455,504.500000
5456,503.000000
5457,504.000000
5458,502.500000
5459,505.000000
5460,503.500000
5461,504.000000
5462,503.000000
5463,504.500000
5464,503.000000
5465,504.000000
5466,502.500000
5467,502.000000
5468,503.500000
5469,503.500000
5470,504.000000
5471,505.000000
5472,503.000000
5473,502.500000
5474,502.500000
5475,503.000000
5476,504.500000
5477,503.000000
5478,503.500000
5479,504.000000
5480,504.000000
5481,504.000000
5482,504.000000
5483,504.000000
5484,504.500000
5485,503.500000
5486,504.500000
5487,504.000000
5488,502.500000
5489,505.000000
5490,503.000000
5491,505.000000
5492,502.000000
5493,504.500000
5494,501.500000
5495,504.000000
5496,502.500000
5497,503.500000
5498,504.000000
5499,503.000000
5500,502.000000
5501,502.500000
5502,502.000000
5503,504.500000
5504,504.000000
5505,503.500000
5506,501.500000
5507,504.000000
5508,501.500000
5509,503.500000
5510,505.000000
5511,500.500000
5512,505.000000
5513,503.500000
5514,504.500000
5515,502.000000
5516,503.000000
5517,501.500000
5518,503.000000
5519,503.000000
5520,502.000000
5521,501.500000
5522,501.500000
5523,501.500000
5524,501.500000
5525,504.000000
5526,500.000000
5527,505.000000
5528,501.000000
5529,504.000000
5530,503.000000
5531,503.500000
5532,504.000000
5533,504.500000
5534,506.500000
5535,503.500000
5536,500.500000
5537,503.500000
5538,506.000000
5539,502.000000
5540,504.500000
5541,503.000000
5542,501.500000
5543,503.500000
5544,501.500000
5545,501.000000
5546,503.000000
5547,500.500000
5548,505.000000
5549,501.000000
5550,503.000000
5551,503.500000
5552,503.000000
5553,504.000000
5554,503.000000
5555,504.500000
5556,503.500000
5557,502.500000
5558,502.500000
5559,500.500000
5560,502.000000
5561,501.500000
5562,502.500000
5563,502.000000
5564,503.500000
5565,502.000000
5566,504.000000
5567,502.000000
5568,501.000000
5569,500.000000
5570,499.000000
5571,503.500000
5572,500.500000
5573,503.000000
5574,502.000000
5575,505.500000
5576,500.500000
5577,501.500000
5578,502.500000
5579,503.000000
5580,503.500000
5581,502.000000
5582,506.000000
5583,503.000000
5584,502.500000
5585,502.500000
5586,501.500000
5587,506.000000
5588,502.500000
5589,501.000000
5590,502.000000
5591,501.000000
5592,502.500000
5593,505.500000
5594,502.000000
5595,502.000000
5596,502.500000
5597,500.500000
5598,503.500000
5599,502.000000
5600,504.000000
5601,500.000000
5602,502.000000
5603,502.500000
5604,504.500000
5605,503.500000
5606,504.500000
5607,504.500000
5608,503.500000
5609,500.000000
5610,501.000000
5611,505.500000
5612,503.000000
5613,504.000000
5614,502.500000
5615,503.000000
5616,502.500000
5617,499.500000
5618,504.500000
5619,501.000000
5620,505.000000
5621,502.500000
5622,504.500000
5623,504.000000
5624,503.500000
5625,502.500000
5626,503.500000
5627,504.500000
5628,503.500000
5629,500.500000
5630,503.000000
5631,502.500000
5632,504.000000
5633,501.000000
5634,499.500000
5635,505.500000
5636,500.000000
5637,500.500000
5638,501.500000
5639,500.000000
5640,500.000000
5641,502.500000
5642,502.000000
5643,503.000000
5644,502.000000
5645,503.500000
5646,502.500000
5647,502.000000
5648,503.000000
5649,503.000000
5650,500.000000
5651,502.500000
5652,501.000000
5653,503.500000
5654,499.500000
5655,504.000000
5656,501.000000
5657,503.500000
5658,504.000000
5659,503.500000
5660,503.000000
5661,502.000000
5662,500.500000
5663,505.000000
5664,501.500000
5665,504.500000
5666,501.500000
5667,500.500000
5668,502.000000
5669,501.000000
5670,503.500000
5671,501.500000
5672,501.500000
5673,503.000000
5674,502.500000
5675,503.500000
5676,502.500000
5677,501.000000
5678,503.500000
5679,502.500000
5680,502.000000
5681,500.000000
5682,503.000000
5683,504.000000
5684,503.500000
5685,502.000000
5686,502.500000
5687,502.500000
5688,504.500000
5689,503.000000
5690,503.000000
5691,505.500000
5692,503.000000
5693,504.500000
5694,504.000000
5695,503.500000
5696,506.000000
5697,501.500000
5698,504.500000
5699,501.500000
5700,502.000000
5701,502.500000
5702,503.000000
5703,502.500000
5704,503.500000
5705,501.500000
5706,501.500000
5707,502.500000
5708,501.000000
5709,504.500000
5710,504.000000
5711,502.000000
5712,502.500000
5713,502.500000
5714,502.000000
5715,503.500000
5716,503.500000
5717,503.000000
5718,501.500000
5719,501.500000
5720,502.000000
5721,503.500000
5722,499.500000
5723,501.500000
5724,503.500000
5725,500.500000
5726,505.500000
5727,504.000000
5728,503.500000
5729,503.000000
5730,503.000000
5731,501.000000
5732,502.000000
5733,501.000000
5734,501.500000
5735,502.000000
5736,502.500000
5737,499.500000
5738,500.500000
5739,505.500000
5740,504.500000
5741,505.500000
5742,504.500000
5743,503.000000
5744,503.500000
5745,503.000000
5746,501.500000
5747,502.000000
5748,502.500000
5749,503.500000
5750,506.500000
5751,502.500000
5752,505.000000
5753,503.000000
5754,502.500000
5755,500.500000
5756,505.500000
5757,502.500000
5758,502.500000
5759,503.000000
5760,502.500000
5761,502.500000
5762,504.000000
5763,502.000000
5764,504.000000
5765,502.500000
5766,501.500000
5767,499.500000
5768,501.500000
5769,502.500000
5770,501.500000
5771,504.500000
5772,503.500000
5773,503.500000
5774,502.500000
5775,503.000000
5776,502.500000
5777,501.500000
5778,503.000000
5779,503.000000
5780,503.000000
5781,500.500000
5782,501.500000
5783,501.500000
5784,502.000000
5785,503.000000
5786,501.000000
5787,501.000000
5788,500.000000
5789,502.500000
5790,502.000000
5791,500.000000
5792,503.500000
5793,504.000000
5794,500.500000
5795,502.000000
5796,501.500000
5797,501.500000
5798,502.500000
5799,502.500000
5800,500.500000
5801,504.000000
5802,501.000000
5803,503.000000
5804,502.000000
5805,499.500000
5806,502.500000
5807,502.500000
5808,500.500000
5809,504.500000
5810,500.500000
5811,499.500000
5812,502.500000
5813,501.500000
5814,501.500000
5815,500.500000
5816,502.500000
5817,500.000000
5818,504.000000
5819,502.500000
5820,505.000000
5821,500.500000
5822,505.000000
5823,502.000000
5824,500.500000
5825,504.000000
5826,502.500000
5827,501.500000
5828,501.000000
5829,501.500000
5830,503.500000
5831,503.500000
5832,501.000000
5833,502.500000
5834,503.500000
5835,503.500000
5836,500.000000
5837,502.500000
5838,501.500000
5839,502.500000
5840,502.000000
5841,504.000000
5842,500.000000
5843,501.500000
5844,503.500000
5845,501.500000
5846,502.000000
5847,501.000000
5848,501.000000
5849,502.500000
5850,502.500000
5851,502.500000
5852,500.000000
5853,502.000000
5854,501.500000
5855,505.000000
5856,504.500000
5857,501.000000
5858,503.500000
5859,500.000000
5860,503.500000
5861,501.000000
5862,502.000000
5863,503.000000
5864,501.000000
5865,502.000000
5866,501.500000
5867,503.000000
5868,498.500000
5869,501.000000
5870,501.000000
5871,503.500000
5872,503.000000
5873,501.500000
5874,503.500000
5875,502.500000
5876,501.000000
5877,501.000000
5878,501.500000
5879,500.000000
5880,503.000000
5881,501.000000
5882,503.000000
5883,504.000000
5884,502.500000
5885,-508.000000
5886,-506.000000
5887,-505.500000
5888,-504.000000
5889,-503.000000
5890,-501.500000
5891,-504.500000
5892,-504.000000
5893,-504.000000
5894,-507.000000
5895,-504.500000
5896,-506.500000
5897,-504.000000
5898,-505.000000
5899,-505.500000
5900,-505.500000
5901,-504.500000
5902,-505.500000
5903,-505.500000
5904,-506.500000
5905,-505.500000
5906,-507.500000
5907,-507.000000
5908,-504.500000
5909,-508.000000
5910,-507.000000
5911,-507.000000
5912,-507.500000
5913,-508.500000
5914,-509.000000
5915,-509.500000
5916,-508.000000
5917,-505.500000
5918,-505.500000
5919,-507.500000
5920,-508.000000
5921,-508.500000
5922,-508.000000
5923,-506.000000
5924,-506.000000
5925,-506.500000
5926,-509.000000
5927,-505.000000
5928,-510.000000
5929,-504.500000
5930,-506.500000
5931,-508.000000
5932,-506.500000
5933,-506.000000
5934,-509.000000
5935,-506.500000
5936,-507.500000
5937,-506.000000
5938,-506.500000
5939,-506.500000
5940,-505.500000
5941,-507.000000
5942,-505.000000
5943,-508.000000
5944,-507.000000
5945,-506.500000
5946,-506.500000
5947,-506.000000
5948,-505.500000
5949,-504.500000
5950,-508.000000
5951,-504.500000
5952,-508.000000
5953,-507.500000
5954,-507.000000
5955,-505.500000
5956,-507.500000
5957,-504.500000
5958,-505.000000
5959,-505.500000
5960,-502.500000
5961,-504.500000
5962,-505.500000
5963,-505.000000
5964,-504.000000
5965,-504.500000
5966,-504.500000
5967,-505.500000
5968,-504.000000
5969,-506.500000
5970,-506.500000
5971,-505.000000
5972,-506.000000
5973,-503.500000
5974,-504.500000
5975,-505.000000
5976,-504.500000
5977,-503.500000
5978,-503.000000
5979,-502.500000
5980,-504.500000
5981,-504.000000
5982,-503.500000
5983,-502.500000
5984,-503.500000
5985,-504.500000
5986,-503.000000
5987,-503.000000
5988,-501.500000
5989,-503.500000
5990,-505.500000
5991,-500.500000
5992,-502.500000
5993,-503.500000
5994,-503.500000
5995,-503.000000
5996,-505.000000
5997,-502.500000
5998,-503.000000
5999,-503.500000
6000,-499.500000
6001,-503.000000
6002,-504.500000
6003,-504.000000
6004,-500.500000
6005,-503.000000
6006,-503.500000
6007,-502.500000
6008,-501.500000
6009,-503.000000
6010,-503.000000
6011,-505.000000
6012,-500.500000
6013,-500.500000
6014,-502.000000
6015,-502.500000
6016,-503.000000
6017,-504.500000
6018,-503.000000
6019,-502.500000
6020,-502.500000
6021,-502.000000
6022,-502.500000
6023,-500.500000
6024,-502.000000
6025,-501.000000
6026,-504.000000
6027,-503.500000
6028,-503.000000
6029,-501.500000
6030,-502.000000
6031,-502.500000
6032,-502.000000
6033,-504.000000
6034,-501.000000
6035,-501.500000
6036,-500.500000
6037,-502.500000
6038,-503.000000
6039,-503.500000
6040,-503.000000
6041,-501.500000
6042,-503.000000
6043,-503.000000
6044,-501.500000
6045,-502.000000
6046,-501.500000
6047,-503.000000
6048,-502.500000
6049,-501.500000
6050,-499.000000
6051,-501.500000
6052,-505.000000
6053,-502.000000
6054,-502.500000
6055,-501.000000
6056,-500.000000
6057,-502.000000
6058,-502.000000
6059,-501.000000
6060,-505.000000
6061,-502.500000
6062,-502.500000
6063,-502.000000
6064,-501.500000
6065,-501.500000
6066,-503.500000
6067,-501.000000
6068,-501.500000
6069,-504.000000
6070,-498.500000
6071,-500.000000
6072,-503.500000
6073,-502.000000
6074,-500.500000
6075,-501.000000
6076,-501.500000
6077,-500.000000
6078,-502.000000
6079,-501.000000
6080,-502.000000
6081,-500.500000
6082,-502.500000
6083,-501.500000
6084,-501.500000
6085,-500.500000
6086,-501.500000
6087,-500.000000
6088,-499.000000
6089,-499.500000
6090,-499.000000
6091,-502.000000
6092,-502.000000
6093,-500.000000
6094,-499.500000
6095,-501.000000
6096,-497.500000
6097,-500.500000
6098,-501.000000
6099,-502.500000
6100,-503.000000
6101,-499.500000
6102,-498.500000
6103,-500.000000
6104,-500.500000
6105,-500.000000
6106,-499.500000
6107,-499.000000
6108,-499.000000
6109,-500.500000
6110,-499.500000
6111,-502.000000
6112,-500.000000
6113,-499.000000
6114,-498.500000
6115,-499.500000
6116,-499.500000
6117,-500.500000
6118,-499.000000
6119,-499.500000
6120,-499.000000
6121,-500.000000
6122,-498.000000
6123,-500.000000
6124,-498.000000
6125,-501.000000
6126,-499.000000
6127,-498.500000
6128,-498.500000
6129,-499.000000
6130,-498.500000
6131,-500.500000
6132,-499.500000
6133,-497.500000
6134,-498.500000
6135,-499.500000
6136,-499.500000
6137,-496.000000
6138,-498.500000
6139,-496.500000
6140,-498.000000
6141,-498.500000
6142,-499.500000
6143,-498.000000
6144,-499.000000
6145,-498.500000
6146,-496.000000
6147,-497.500000
6148,-498.000000
6149,-496.500000
6150,-497.000000
6151,-498.000000
6152,-498.500000
6153,-500.500000
6154,-501.000000
6155,-500.500000
6156,-498.000000
6157,-497.500000
6158,-498.000000
6159,-500.500000
6160,-502.500000
6161,-498.000000
6162,-498.000000
6163,-498.500000
6164,-499.000000
6165,-499.500000
6166,-500.000000
6167,-501.000000
6168,-500.000000
6169,-500.500000
6170,-501.500000
6171,-500.000000
6172,-496.500000
6173,-500.500000
6174,-498.500000
6175,-499.500000
6176,-497.500000
6177,-499.000000
6178,-497.000000
6179,-496.000000
6180,-499.500000
6181,-498.000000
6182,-496.500000
6183,-499.000000
6184,-498.500000
6185,-499.500000
6186,-498.500000
6187,-500.500000
6188,-497.000000
6189,-499.500000
6190,-499.500000
6191,-498.000000
6192,-495.500000
6193,-498.000000
6194,-498.000000
6195,-498.000000
6196,-499.000000
6197,-497.500000
6198,-497.500000
6199,-499.000000
6200,-499.500000
6201,-498.000000
6202,-498.000000
6203,-499.000000
6204,-499.500000
6205,-498.500000
6206,-498.000000
6207,-494.500000
6208,-500.000000
6209,-499.500000
6210,-499.500000
6211,-498.500000
6212,-498.500000
6213,-500.500000
6214,-499.000000
6215,-497.500000
6216,-496.500000
6217,-499.000000
6218,-496.500000
6219,-500.500000
6220,-498.500000
6221,-499.500000
6222,-498.000000
6223,-497.500000
6224,-498.000000
6225,-497.000000
6226,-497.500000
6227,-498.500000
6228,-497.500000
6229,-498.500000
6230,-498.500000
6231,-499.000000
6232,-499.500000
6233,-496.500000
6234,-495.500000
6235,-499.500000
6236,-498.500000
6237,-498.500000
6238,-498.500000
6239,-499.000000
6240,-494.500000
6241,-498.000000
6242,-496.000000
6243,-499.500000
6244,-495.000000
6245,-496.500000
6246,-496.500000
6247,-500.000000
6248,-500.000000
6249,-495.000000
6250,-498.000000
6251,-498.000000
6252,-497.000000
6253,-498.000000
6254,-496.000000
6255,-498.000000
6256,-496.500000
6257,-496.500000
6258,-497.500000
6259,-497.500000
6260,-497.500000
6261,-496.000000
6262,-495.500000
6263,-496.500000
6264,-497.000000
6265,-497.500000
6266,-496.500000
6267,-496.500000
6268,-497.000000
6269,-498.000000
6270,-496.500000
6271,-497.000000
6272,-500.000000
6273,-496.500000
6274,-499.500000
6275,-498.500000
6276,-498.500000
6277,-497.000000
6278,-498.500000
6279,-499.500000
6280,-497.500000
6281,-494.500000
6282,-498.500000
6283,-498.000000
6284,-497.500000
6285,-499.000000
6286,-498.000000
6287,-496.500000
6288,-499.000000
6289,-497.500000
6290,-497.500000
6291,-497.500000
6292,-498.500000
6293,-497.500000
6294,-499.500000
6295,-500.000000
6296,-498.000000
6297,-498.500000
6298,-497.000000
6299,-498.500000
6300,-496.500000
6301,-497.000000
6302,-497.500000
6303,-496.000000
6304,-495.500000
6305,-498.500000
6306,-496.000000
6307,-498.500000
6308,-497.500000
6309,-496.000000
6310,-498.500000
6311,-497.000000
6312,-498.000000
6313,-498.000000
6314,-498.000000
6315,-498.500000
6316,-497.500000
6317,-500.500000
6318,-499.500000
6319,-499.500000
6320,-495.500000
6321,-500.500000
6322,-497.000000
6323,-498.500000
6324,-497.000000
6325,-494.500000
6326,-498.000000
6327,-497.000000
6328,-498.000000
6329,-498.500000
6330,-499.500000
6331,-497.500000
6332,-498.500000
6333,-497.500000
6334,-497.500000
6335,-497.000000
6336,-497.000000
6337,-499.000000
6338,-499.500000
6339,-498.000000
6340,-496.500000
6341,-497.000000
6342,-496.000000
6343,-497.000000
6344,-496.500000
6345,-498.000000
6346,-497.000000
6347,-497.500000
6348,-497.000000
6349,-496.500000
6350,-497.500000
6351,-496.000000
6352,-496.000000
6353,-497.000000
6354,-500.000000
6355,-498.500000
6356,-500.500000
6357,-496.000000
6358,-497.000000
6359,-497.000000
6360,-498.500000
6361,-495.500000
6362,-498.000000
6363,-496.500000
6364,-495.500000
6365,-499.000000
6366,-496.500000
6367,-500.000000
6368,-495.500000
6369,-497.000000
6370,-497.500000
6371,-496.500000
6372,-497.500000
6373,-495.000000
6374,-497.000000
6375,-496.500000
6376,-496.500000
6377,-496.000000
6378,-494.500000
6379,-497.000000
6380,-496.500000
6381,-496.000000
6382,-498.000000
6383,-493.500000
6384,-499.000000
6385,-497.500000
6386,-497.000000
6387,-495.500000
6388,-495.500000
6389,-495.500000
6390,-497.000000
6391,-496.000000
6392,-497.500000
6393,-495.500000
6394,-496.500000
6395,-496.500000
6396,-499.000000
6397,-496.500000
6398,-499.500000
6399,-497.500000
6400,-496.500000
6401,-497.500000
6402,-495.500000
6403,-495.500000
6404,-497.500000
6405,-498.500000
6406,-498.500000
6407,-496.500000
6408,-499.000000
6409,-497.500000
6410,-497.000000
6411,-496.500000
6412,-497.500000
6413,-497.500000
6414,-499.000000
6415,-496.000000
6416,-496.500000
6417,-495.000000
6418,-498.000000
6419,-498.000000
6420,-497.000000
6421,-496.000000
6422,-496.500000
6423,-497.500000
6424,-496.000000
6425,-494.500000
6426,-494.500000
6427,-498.500000
6428,-496.000000
6429,-496.500000
6430,-497.500000
6431,-495.500000
6432,-495.500000
6433,-497.000000
6434,-497.500000
6435,-496.000000
6436,-496.500000
6437,-494.500000
6438,-496.500000
6439,-498.500000
6440,-496.000000
6441,-495.000000
6442,-496.000000
6443,-497.000000
6444,-496.500000
6445,-498.500000
6446,-499.000000
6447,-496.000000
6448,-497.500000
6449,-497.000000
6450,-498.000000
6451,-496.500000
6452,-495.000000
6453,-497.000000
6454,-496.000000
6455,-495.500000
6456,-494.000000
6457,-497.000000
6458,-497.000000
6459,-496.500000
6460,-496.000000
6461,-496.000000
6462,-499.000000
6463,-497.500000
6464,-497.500000
6465,-496.500000
6466,-496.500000
6467,-496.500000
6468,-496.000000
6469,-495.500000
6470,-495.500000
6471,-496.500000
6472,-497.500000
6473,-497.500000
6474,-497.500000
6475,-499.500000
6476,-498.500000
6477,-499.000000
6478,-496.500000
6479,-496.500000
6480,-495.500000
6481,-496.500000
6482,-496.500000
6483,-497.500000
6484,-495.000000
6485,-496.500000
6486,-496.000000
6487,-497.500000
6488,-497.000000
6489,-496.500000
6490,-497.000000
6491,-497.500000
6492,-494.500000
6493,-498.500000
6494,-496.000000
6495,-495.500000
6496,-497.000000
6497,-497.000000
6498,-496.000000
6499,-498.500000
6500,-495.000000
6501,-494.000000
6502,-497.500000
6503,-496.500000
6504,-495.500000
6505,-496.500000
6506,-495.000000
6507,-498.000000
6508,-494.500000
6509,-495.500000
6510,-495.500000
6511,-494.500000
6512,-494.500000
6513,-495.500000
6514,-496.500000
6515,-496.000000
6516,-494.500000
6517,-497.500000
6518,-494.000000
6519,-497.000000
6520,-494.500000
6521,-496.000000
6522,-499.000000
6523,-498.000000
6524,-498.500000
6525,-498.000000
6526,-497.500000
6527,-497.000000
6528,-499.000000
6529,-497.000000
6530,-496.500000
6531,-497.500000
6532,-496.500000
6533,-498.500000
6534,-496.500000
6535,-499.000000
6536,-494.500000
6537,-497.000000
6538,-498.000000
6539,-495.500000
6540,-497.500000
6541,-497.000000
6542,-496.000000
6543,-495.500000
6544,-498.000000
6545,-495.500000
6546,-496.000000
6547,-495.500000
6548,-495.500000
6549,-497.000000
6550,-495.500000
6551,-495.500000
6552,-496.500000
6553,-497.500000
6554,-496.500000
6555,-496.500000
6556,-496.500000
6557,-497.000000
6558,-497.000000
6559,-494.500000
6560,-496.500000
6561,-494.000000
6562,-496.000000
6563,-496.500000
6564,-496.500000
6565,-497.000000
6566,-496.000000
6567,-496.500000
6568,-496.500000
6569,-492.500000
6570,-497.000000
6571,-496.000000
6572,-497.000000
6573,-494.500000
6574,-497.000000
6575,-496.000000
6576,-496.000000
6577,-497.000000
6578,-497.000000
6579,-497.000000
6580,-496.500000
6581,-494.500000
6582,-496.500000
6583,-494.000000
6584,-495.500000
6585,-495.000000
6586,-495.500000
6587,-496.500000
6588,-497.500000
6589,-497.000000
6590,-499.500000
6591,-496.000000
6592,-496.500000
6593,-494.500000
6594,-495.000000
6595,-498.500000
6596,-495.500000
6597,-494.500000
6598,-495.000000
6599,-495.000000
6600,-494.000000
6601,-496.500000
6602,-495.000000
6603,-496.500000
6604,-496.000000
6605,-496.500000
6606,-495.500000
6607,-494.500000
6608,-498.000000
6609,-493.500000
6610,-498.000000
6611,-497.500000
6612,-494.500000
6613,-497.500000
6614,-495.500000
6615,-498.000000
6616,-496.500000
6617,-499.500000
6618,-497.500000
6619,-497.500000
6620,-495.500000
6621,-497.500000
6622,-496.500000
6623,-498.500000
6624,-498.000000
6625,-494.000000
6626,-495.000000
6627,-497.000000
6628,-497.000000
6629,-496.000000
6630,-496.000000
6631,-494.500000
6632,-496.500000
6633,-498.500000
6634,-496.500000
6635,-495.500000
6636,-499.000000
6637,-496.000000
6638,-494.500000
6639,-499.500000
6640,-494.500000
6641,-496.000000
6642,-495.500000
6643,-497.500000
6644,-496.000000
6645,-495.500000
6646,-492.500000
6647,-495.000000
6648,-496.500000
6649,-496.000000
6650,-498.500000
6651,-497.000000
6652,-495.500000
6653,-496.000000
6654,-496.000000
6655,-497.500000
6656,-496.000000
6657,-497.500000
6658,-496.500000
6659,-495.000000
6660,-497.000000
6661,-497.000000
6662,-494.500000
6663,-496.500000
6664,-495.000000
6665,-496.000000
6666,-494.500000
6667,-496.500000
6668,-494.000000
6669,-497.000000
6670,-493.500000
6671,-496.000000
6672,-495.500000
6673,-495.000000
6674,-496.500000
6675,-495.000000
6676,-496.000000
6677,-495.500000
6678,-495.500000
6679,-496.500000
6680,-496.500000
6681,-496.000000
6682,-496.000000
6683,-497.500000
6684,-495.000000
6685,-495.000000
6686,-496.000000
6687,-495.500000
6688,-496.500000
6689,-495.500000
6690,-494.500000
6691,-496.500000
6692,-495.500000
6693,-496.000000
6694,-495.500000
6695,-496.000000
6696,-499.000000
6697,-496.500000
6698,-497.000000
6699,-494.500000
6700,-496.500000
6701,-496.500000
6702,-496.500000
6703,-498.500000
6704,-498.000000
6705,-497.000000
6706,-494.000000
6707,-496.000000
6708,-494.500000
6709,-494.500000
6710,-496.500000
6711,-497.500000
6712,-496.500000
6713,-497.000000
6714,-496.500000
6715,-496.000000
6716,-496.000000
6717,-495.000000
6718,-496.000000
6719,-497.000000
6720,-496.000000
6721,-497.000000
6722,-496.000000
6723,-493.500000
6724,-495.000000
6725,-496.000000
6726,-499.500000
6727,-496.500000
6728,-496.500000
6729,-496.000000
6730,-497.000000
6731,-496.000000
6732,-497.500000
6733,-495.000000
6734,-498.500000
6735,-497.000000
6736,-497.500000
6737,-497.500000
6738,-495.500000
6739,-495.500000
6740,-494.500000
6741,-498.500000
6742,-499.000000
6743,-499.500000
6744,-496.500000
6745,-497.500000
6746,-498.500000
6747,-496.500000
6748,-496.000000
6749,-496.500000
6750,-496.500000
6751,-495.000000
6752,-499.000000
6753,-496.500000
6754,-495.500000
6755,-497.000000
6756,-496.500000
6757,-495.500000
6758,-497.000000
6759,-497.000000
6760,-497.000000
6761,-498.000000
6762,-497.000000
6763,-494.000000
6764,-496.000000
6765,-496.000000
6766,-496.500000
6767,-497.000000
6768,-497.500000
6769,-496.000000
6770,-495.500000
6771,-496.000000
6772,-496.000000
6773,-497.500000
6774,-495.500000
6775,-496.500000
6776,-498.500000
6777,-494.000000
6778,513.000000
6779,512.500000
6780,509.500000
6781,510.500000
6782,510.500000
6783,512.500000
6784,511.500000
6785,507.500000
6786,512.000000
6787,508.500000
6788,513.000000
6789,510.000000
6790,511.500000
6791,514.000000
6792,513.000000
6793,513.000000
6794,514.500000
6795,511.500000
6796,513.500000
6797,512.000000
6798,516.000000
6799,513.500000
6800,513.000000
6801,513.500000
6802,516.500000
6803,514.500000
6804,513.500000
6805,514.000000
6806,517.500000
6807,514.000000
6808,515.000000
6809,513.000000
6810,514.500000
6811,511.000000
6812,513.500000
6813,516.000000
6814,513.000000
6815,515.000000
6816,512.000000
6817,514.000000
6818,514.500000
6819,515.000000
6820,512.000000
6821,514.500000
6822,512.500000
6823,511.500000
6824,513.000000
6825,513.500000
6826,512.000000
6827,513.500000
6828,509.500000
6829,510.000000
6830,513.500000
6831,510.500000
6832,512.500000
6833,511.500000
6834,513.500000
6835,511.500000
6836,512.500000
6837,512.500000
6838,513.000000
6839,512.500000
6840,512.500000
6841,513.000000
6842,513.000000
6843,511.500000
6844,512.500000
6845,510.000000
6846,512.500000
6847,513.000000
6848,515.000000
6849,512.000000
6850,513.500000
6851,514.000000
6852,510.000000
6853,513.000000
6854,513.000000
6855,512.500000
6856,513.500000
6857,512.500000
6858,514.000000
6859,508.000000
6860,513.000000
6861,512.000000
6862,511.000000
6863,513.500000
6864,511.500000
6865,509.500000
6866,513.500000
6867,510.000000
6868,513.000000
6869,511.500000
6870,511.500000
6871,509.500000
6872,512.000000
6873,513.000000
6874,511.500000
6875,513.000000
6876,508.500000
6877,510.000000
6878,511.500000
6879,509.000000
6880,512.000000
6881,508.500000
6882,508.500000
6883,510.000000
6884,508.500000
6885,510.000000
6886,509.500000
6887,511.000000
6888,509.500000
6889,509.500000
6890,509.000000
6891,508.000000
6892,509.500000
6893,508.500000
6894,509.000000
6895,506.500000
6896,509.500000
6897,510.000000
6898,507.000000
6899,510.000000
6900,508.000000
6901,508.000000
6902,509.500000
6903,510.000000
6904,508.000000
6905,510.500000
6906,508.000000
6907,509.500000
6908,505.500000
6909,510.000000
6910,506.500000
6911,508.000000
6912,508.500000
6913,508.000000
6914,506.500000
6915,507.000000
6916,507.500000
6917,507.000000
6918,512.000000
6919,507.500000
6920,510.500000
6921,507.500000
6922,507.000000
6923,509.000000
6924,509.000000
6925,508.000000
6926,508.000000
6927,509.000000
6928,509.500000
6929,509.000000
6930,507.000000
6931,511.000000
6932,506.000000
6933,508.000000
6934,509.500000
6935,508.000000
6936,512.500000
6937,506.000000
6938,509.000000
6939,506.500000
6940,510.000000
6941,504.000000
6942,507.500000
6943,508.000000
6944,508.500000
6945,506.500000
6946,507.000000
6947,505.500000
6948,506.000000
6949,505.500000
6950,507.000000
6951,505.500000
6952,506.000000
6953,505.000000
6954,507.000000
6955,505.000000
6956,507.500000
6957,505.000000
6958,509.500000
6959,507.000000
6960,509.000000
6961,508.000000
6962,506.000000
6963,506.500000
6964,504.500000
6965,505.500000
6966,506.000000
6967,508.000000
6968,505.500000
6969,506.500000
6970,505.500000
6971,505.000000
6972,503.500000
6973,504.500000
6974,508.000000
6975,502.500000
6976,506.000000
6977,505.000000
6978,508.000000
6979,507.500000
6980,505.500000
6981,503.000000
6982,506.000000
6983,505.000000
6984,507.000000
6985,507.000000
6986,504.500000
6987,505.500000
6988,504.000000
6989,505.000000
6990,505.500000
6991,504.000000
6992,504.000000
6993,506.500000
6994,506.500000
6995,505.500000
6996,505.500000
6997,505.500000
6998,507.500000
6999,505.500000
7000,507.500000
7001,502.000000
7002,508.500000
7003,505.000000
7004,507.500000
7005,506.000000
7006,504.500000
7007,506.000000
7008,506.000000
7009,508.000000
7010,503.500000
7011,507.000000
7012,505.000000
7013,506.500000
7014,505.500000
7015,505.000000
7016,505.500000
7017,504.500000
7018,505.500000
7019,507.500000
7020,505.000000
7021,506.500000
7022,507.500000
7023,503.500000
7024,506.500000
7025,506.500000
7026,505.000000
7027,506.500000
7028,505.000000
7029,507.000000
7030,508.000000
7031,506.000000
7032,506.000000
7033,506.000000
7034,506.500000
7035,507.500000
7036,508.000000
7037,506.000000
7038,507.000000
7039,507.000000
7040,504.000000
7041,505.500000
7042,505.000000
7043,504.500000
7044,504.500000
7045,505.500000
7046,505.000000
7047,507.500000
7048,503.000000
7049,506.500000
7050,507.000000
7051,504.500000
7052,505.500000
7053,505.500000
7054,504.500000
7055,504.500000
7056,505.000000
7057,505.000000
7058,506.500000
7059,507.000000
7060,505.000000
7061,506.000000
7062,503.500000
7063,507.500000
7064,505.500000
7065,505.500000
7066,505.500000
7067,506.500000
7068,506.500000
7069,504.500000
7070,504.500000
7071,503.000000
7072,505.500000
7073,503.000000
7074,505.500000
7075,505.500000
7076,506.500000
7077,504.500000
7078,505.000000
7079,505.000000
7080,506.000000
7081,504.500000
7082,504.500000
7083,505.000000
7084,504.000000
7085,504.500000
7086,506.000000
7087,503.500000
7088,503.000000
7089,505.000000
7090,505.000000
7091,504.500000
7092,507.000000
7093,504.500000
7094,505.000000
7095,507.000000
7096,506.500000
7097,507.000000
7098,506.000000
7099,506.000000
7100,506.000000
7101,505.000000
7102,506.500000
7103,504.000000
7104,507.000000
7105,505.500000
7106,506.000000
7107,508.000000
7108,506.500000
7109,504.500000
7110,503.500000
7111,503.500000
7112,505.000000
7113,505.500000
7114,503.500000
7115,506.500000
7116,505.500000
7117,505.500000
7118,504.000000
7119,505.500000
7120,507.500000
7121,506.000000
7122,505.000000
7123,504.000000
7124,503.000000
7125,505.000000
7126,504.500000
7127,502.500000
7128,504.500000
7129,504.500000
7130,505.000000
7131,503.000000
7132,505.500000
7133,501.500000
7134,504.000000
7135,506.500000
7136,502.500000
7137,504.000000
7138,505.000000
7139,503.000000
7140,503.000000
7141,504.500000
7142,504.500000
7143,504.000000
7144,504.500000
7145,501.500000
7146,500.500000
7147,502.500000
7148,504.000000
7149,503.500000
7150,504.500000
7151,506.500000
7152,503.000000
7153,502.000000
7154,504.000000
7155,505.000000
7156,503.500000
7157,503.500000
7158,503.000000
7159,505.000000
7160,502.500000
7161,503.500000
7162,503.000000
7163,504.000000
7164,502.500000
7165,503.000000
7166,502.500000
7167,504.500000
7168,504.500000
7169,502.000000
7170,504.500000
7171,503.000000
7172,503.500000
7173,504.000000
7174,502.000000
7175,503.500000
7176,503.500000
7177,503.500000
7178,502.500000
7179,504.500000
7180,502.500000
7181,503.000000
7182,505.000000
7183,502.500000
7184,503.000000
7185,504.000000
7186,505.000000
7187,502.500000
7188,501.500000
7189,500.000000
7190,503.500000
7191,504.500000
7192,503.500000
7193,503.500000
7194,503.000000
7195,503.000000
7196,501.500000
7197,501.500000
7198,503.500000
7199,503.500000
7200,501.500000
7201,504.000000
7202,503.500000
7203,503.500000
7204,501.500000
7205,504.000000
7206,502.500000
7207,503.500000
7208,505.000000
7209,503.500000
7210,505.500000
7211,502.000000
7212,505.000000
7213,502.000000
7214,503.000000
7215,506.000000
7216,504.000000
7217,503.000000
7218,503.500000
7219,504.000000
7220,502.000000
7221,505.000000
7222,503.000000
7223,505.000000
7224,503.000000
7225,505.000000
7226,504.500000
7227,503.000000
7228,504.000000
7229,505.000000
7230,504.000000
7231,503.500000
7232,503.500000
7233,502.500000
7234,504.000000
7235,501.500000
7236,501.500000
7237,507.000000
7238,504.500000
7239,503.000000
7240,501.000000
7241,505.500000
7242,501.500000
7243,503.500000
7244,503.000000
7245,503.500000
7246,502.500000
7247,503.000000
7248,500.500000
7249,504.000000
7250,503.500000
7251,503.000000
7252,503.500000
7253,504.500000
7254,502.500000
7255,504.500000
7256,503.500000
7257,502.500000
7258,503.500000
7259,503.000000
7260,500.500000
7261,501.000000
7262,503.500000
7263,501.000000
7264,504.000000
7265,502.500000
7266,503.500000
7267,502.000000
7268,503.000000
7269,500.500000
7270,503.000000
7271,501.000000
7272,504.500000
7273,502.500000
7274,503.000000
7275,502.500000
7276,503.000000
7277,503.000000
7278,505.000000
7279,502.500000
7280,504.000000
7281,507.000000
7282,505.000000
7283,502.500000
7284,504.000000
7285,504.500000
7286,505.500000
7287,505.000000
7288,503.000000
7289,503.500000
7290,504.500000
7291,503.000000
7292,505.500000
7293,503.500000
7294,502.500000
7295,503.000000
7296,504.000000
7297,503.000000
7298,502.000000
7299,501.500000
7300,503.000000
7301,504.500000
7302,504.500000
7303,502.000000
7304,500.500000
7305,502.500000
7306,501.500000
7307,502.500000
7308,502.000000
7309,504.500000
7310,501.500000
7311,502.500000
7312,502.500000
7313,504.000000
7314,504.000000
7315,503.000000
7316,501.000000
7317,504.000000
7318,503.000000
7319,504.500000
7320,503.500000
7321,501.000000
7322,501.500000
7323,502.000000
7324,501.500000
7325,503.500000
7326,502.500000
7327,502.500000
7328,502.000000
7329,503.000000
7330,502.500000
7331,500.000000
7332,504.000000
7333,501.500000
7334,502.000000
7335,503.500000
7336,503.500000
7337,504.000000
7338,505.500000
7339,502.000000
7340,505.500000
7341,502.500000
7342,505.000000
7343,502.000000
7344,503.000000
7345,502.500000
7346,502.000000
7347,505.000000
7348,501.500000
7349,505.000000
7350,503.500000
7351,503.500000
7352,503.500000
7353,500.000000
7354,503.000000
7355,502.500000
7356,503.500000
7357,502.500000
7358,501.500000
7359,504.000000
7360,503.000000
7361,503.500000
7362,503.000000
7363,500.500000
7364,501.500000
7365,503.500000
7366,501.000000
7367,505.000000
7368,501.500000
7369,505.500000
7370,504.000000
7371,501.500000
7372,503.000000
7373,500.000000
7374,502.000000
7375,503.500000
7376,504.500000
7377,505.500000
7378,502.000000
7379,501.500000
7380,503.500000
7381,500.500000
7382,502.500000
7383,502.000000
7384,506.000000
7385,502.000000
7386,501.500000
7387,502.500000
7388,502.500000
7389,503.500000
7390,503.000000
7391,502.500000
7392,502.000000
7393,502.000000
7394,503.500000
7395,501.500000
7396,502.000000
7397,504.000000
7398,500.500000
7399,501.500000
7400,503.500000
7401,501.000000
7402,504.000000
7403,503.500000
7404,503.000000
7405,503.500000
7406,503.000000
7407,501.500000
7408,503.500000
7409,499.000000
7410,501.500000
7411,500.500000
7412,501.500000
7413,501.000000
7414,504.000000
7415,502.500000
7416,502.000000
7417,506.000000
7418,501.000000
7419,505.500000
7420,504.000000
7421,502.500000
7422,505.000000
7423,502.500000
7424,501.500000
7425,502.500000
7426,504.500000
7427,503.000000
7428,503.000000
7429,502.500000
7430,501.500000
7431,501.500000
7432,502.000000
7433,501.500000
7434,503.500000
7435,501.000000
7436,500.500000
7437,505.000000
7438,504.000000
7439,503.000000
7440,501.500000
7441,505.000000
7442,503.500000
7443,503.000000
7444,502.000000
7445,503.500000
7446,501.000000
7447,505.000000
7448,504.000000
7449,504.000000
7450,502.000000
7451,503.000000
7452,500.000000
7453,502.000000
7454,499.000000
7455,503.500000
7456,500.000000
7457,503.000000
7458,501.500000
7459,501.500000
7460,502.000000
7461,500.500000
7462,502.500000
7463,502.000000
7464,502.500000
7465,503.000000
7466,505.000000
7467,503.000000
7468,502.500000
7469,503.500000
7470,503.500000
7471,501.500000
7472,503.000000
7473,503.000000
7474,502.500000
7475,507.000000
7476,504.000000
7477,500.500000
7478,505.000000
7479,503.500000
7480,504.500000
7481,503.500000
7482,504.000000
7483,503.500000
7484,504.000000
7485,501.000000
7486,502.500000
7487,503.000000
7488,504.500000
7489,500.500000
7490,504.000000
7491,501.000000
7492,503.500000
7493,500.000000
7494,505.000000
7495,501.500000
7496,503.500000
7497,504.000000
7498,503.500000
7499,504.000000
7500,502.000000
7501,504.000000
7502,504.000000
7503,504.000000
7504,504.000000
7505,505.000000
7506,505.000000
7507,502.500000
7508,502.000000
7509,501.500000
7510,501.500000
7511,502.000000
7512,503.500000
7513,502.500000
7514,502.500000
7515,503.000000
7516,503.500000
7517,504.500000
7518,504.500000
7519,502.000000
7520,502.000000
7521,504.000000
7522,499.500000
7523,501.500000
7524,501.500000
7525,503.000000
7526,501.000000
7527,504.500000
7528,501.500000
7529,502.500000
7530,504.000000
7531,504.000000
7532,500.000000
7533,501.500000
7534,502.000000
7535,499.500000
7536,502.000000
7537,499.500000
7538,501.500000
7539,501.000000
7540,501.500000
7541,500.500000
7542,504.000000
7543,502.000000
7544,503.500000
7545,502.000000
7546,504.000000
7547,503.000000
7548,502.000000
7549,502.000000
7550,504.500000
7551,502.500000
7552,502.500000
7553,502.500000
7554,500.500000
7555,502.000000
7556,500.500000
7557,502.500000
7558,503.500000
7559,499.000000
7560,502.500000
7561,500.500000
7562,501.500000
7563,502.500000
7564,505.000000
7565,502.500000
7566,502.500000
7567,500.500000
7568,503.000000
7569,500.000000
7570,505.500000
7571,501.500000
7572,505.500000
7573,503.000000
7574,502.000000
7575,502.500000
7576,501.500000
7577,503.500000
7578,500.500000
7579,504.500000
7580,502.500000
7581,504.000000
7582,502.500000
7583,504.500000
7584,503.500000
7585,502.500000
7586,501.500000
7587,506.000000
7588,503.000000
7589,502.500000
7590,501.500000
7591,503.000000
7592,503.000000
7593,503.500000
7594,504.500000
7595,502.500000
7596,503.000000
7597,504.500000
7598,503.500000
7599,503.500000
7600,503.000000
7601,504.000000
7602,502.000000
7603,505.000000
7604,502.000000
7605,504.500000
7606,502.500000
7607,504.500000
7608,503.000000
7609,502.000000
7610,502.000000
7611,502.000000
7612,503.000000
7613,504.000000
7614,502.000000
7615,502.000000
7616,501.000000
7617,504.500000
7618,499.500000
7619,501.500000
7620,501.500000
7621,501.000000
7622,501.500000
7623,502.000000
7624,503.000000
7625,501.500000
7626,503.000000
7627,503.500000
7628,503.500000
7629,506.000000
7630,502.500000
7631,502.500000
7632,501.500000
7633,500.000000
7634,503.500000
7635,503.000000
7636,504.500000
7637,503.000000
7638,501.500000
7639,502.000000
7640,499.500000
7641,502.500000
7642,500.500000
7643,501.500000
7644,501.000000
7645,500.500000
7646,503.000000
7647,504.500000
7648,501.500000
7649,502.000000
7650,504.500000
7651,502.500000
7652,502.500000
7653,500.500000
7654,501.000000
7655,500.500000
7656,501.500000
7657,500.500000
7658,501.000000
7659,502.000000
7660,503.500000
7661,501.000000
7662,502.500000
7663,501.500000
7664,499.500000
7665,502.500000
7666,498.500000
7667,502.500000
7668,500.500000
7669,502.500000
7670,499.000000
7671,-509.500000
7672,-506.500000
7673,-507.000000
7674,-502.000000
7675,-503.500000
7676,-503.000000
7677,-502.500000
7678,-504.500000
7679,-503.000000
7680,-504.500000
7681,-504.500000
7682,-507.000000
7683,-506.500000
7684,-505.500000
7685,-505.500000
7686,-505.500000
7687,-506.500000
7688,-507.000000
7689,-507.000000
7690,-506.500000
7691,-509.000000
7692,-506.000000
7693,-504.500000
7694,-509.000000
7695,-508.000000
7696,-508.000000
7697,-507.000000
7698,-506.500000
7699,-509.000000
7700,-507.500000
7701,-509.000000
7702,-510.000000
7703,-508.500000
7704,-507.500000
7705,-510.500000
7706,-510.000000
7707,-507.500000
7708,-507.500000
7709,-507.500000
7710,-508.000000
7711,-506.500000
7712,-509.000000
7713,-507.500000
7714,-505.500000
7715,-506.000000
7716,-507.000000
7717,-508.000000
7718,-507.000000
7719,-507.000000
7720,-509.000000
7721,-509.500000
7722,-506.000000
7723,-507.000000
7724,-506.000000
7725,-506.500000
7726,-506.500000
7727,-506.000000
7728,-506.500000
7729,-508.500000
7730,-507.500000
7731,-507.000000
7732,-505.500000
7733,-506.000000
7734,-503.500000
7735,-506.000000
7736,-507.000000
7737,-508.000000
7738,-506.000000
7739,-503.500000
7740,-505.000000
7741,-507.000000
7742,-505.500000
7743,-506.000000
7744,-504.000000
7745,-507.500000
7746,-506.500000
7747,-507.000000
7748,-505.500000
7749,-505.000000
7750,-504.500000
7751,-504.000000
7752,-506.500000
7753,-505.000000
7754,-504.500000
7755,-505.500000
7756,-504.500000
7757,-504.000000
7758,-503.000000
7759,-505.000000
7760,-503.500000
7761,-505.500000
7762,-504.500000
7763,-506.000000
7764,-503.000000
7765,-505.500000
7766,-505.500000
7767,-505.500000
7768,-504.500000
7769,-506.500000
7770,-505.000000
7771,-505.500000
7772,-503.000000
7773,-503.500000
7774,-502.000000
7775,-502.500000
7776,-502.000000
7777,-505.000000
7778,-503.000000
7779,-503.500000
7780,-503.500000
7781,-501.000000
7782,-504.000000
7783,-501.500000
7784,-502.500000
7785,-503.500000
7786,-502.500000
7787,-505.500000
7788,-503.500000
7789,-501.500000
7790,-504.000000
7791,-503.000000
7792,-503.500000
7793,-502.500000
7794,-504.500000
7795,-502.000000
7796,-503.000000
7797,-501.000000
7798,-502.500000
7799,-502.000000
7800,-502.500000
7801,-503.000000
7802,-504.500000
7803,-502.000000
7804,-502.500000
7805,-503.000000
7806,-502.000000
7807,-502.500000
7808,-504.000000
7809,-504.000000
7810,-501.000000
7811,-503.000000
7812,-502.000000
7813,-499.000000
7814,-500.500000
7815,-503.000000
7816,-501.500000
7817,-501.000000
7818,-502.500000
7819,-500.500000
7820,-502.000000
7821,-504.000000
7822,-502.000000
7823,-501.500000
7824,-499.500000
7825,-501.500000
7826,-501.500000
7827,-500.000000
7828,-502.000000
7829,-499.500000
7830,-501.000000
7831,-499.500000
7832,-504.500000
7833,-501.000000
7834,-502.000000
7835,-503.000000
7836,-502.500000
7837,-501.500000
7838,-503.500000
7839,-503.500000
7840,-499.500000
7841,-501.500000
7842,-499.500000
7843,-501.500000
7844,-500.500000
7845,-501.500000
7846,-501.000000
7847,-502.000000
7848,-498.500000
7849,-504.500000
7850,-502.000000
7851,-500.500000
7852,-501.500000
7853,-501.500000
7854,-501.000000
7855,-502.500000
7856,-500.500000
7857,-499.000000
7858,-501.500000
7859,-500.000000
7860,-499.000000
7861,-502.500000
7862,-500.500000
7863,-502.500000
7864,-498.500000
7865,-502.000000
7866,-498.500000
7867,-499.500000
7868,-500.000000
7869,-499.000000
7870,-500.000000
7871,-500.500000
7872,-500.000000
7873,-497.500000
7874,-497.000000
7875,-500.000000
7876,-498.500000
7877,-500.000000
7878,-502.500000
7879,-499.500000
7880,-502.500000
7881,-499.500000
7882,-502.500000
7883,-500.500000
7884,-500.500000
7885,-499.000000
7886,-499.500000
7887,-502.000000
7888,-500.000000
7889,-499.500000
7890,-502.000000
7891,-501.500000
7892,-498.000000
7893,-500.500000
7894,-500.500000
7895,-501.500000
7896,-498.500000
7897,-500.500000
7898,-500.500000
7899,-499.000000
7900,-500.500000
7901,-499.000000
7902,-501.500000
7903,-499.000000
7904,-498.500000
7905,-498.500000
7906,-500.500000
7907,-499.000000
7908,-500.500000
7909,-499.500000
7910,-498.500000
7911,-499.500000
7912,-499.000000
7913,-498.000000
7914,-496.500000
7915,-502.000000
7916,-499.500000
7917,-498.500000
7918,-500.000000
7919,-499.000000
7920,-501.500000
7921,-500.500000
7922,-498.500000
7923,-498.000000
7924,-499.000000
7925,-499.000000
7926,-499.000000
7927,-499.500000
7928,-500.000000
7929,-498.500000
7930,-501.000000
7931,-500.500000
7932,-500.500000
7933,-497.500000
7934,-498.500000
7935,-498.500000
7936,-499.500000
7937,-498.500000
7938,-501.000000
7939,-500.000000
7940,-498.000000
7941,-498.500000
7942,-500.000000
7943,-498.000000
7944,-498.000000
7945,-496.500000
7946,-498.500000
7947,-499.500000
7948,-498.000000
7949,-499.000000
7950,-498.500000
7951,-498.500000
7952,-498.500000
7953,-498.500000
7954,-498.000000
7955,-501.000000
7956,-500.000000
7957,-497.500000
7958,-499.500000
7959,-500.000000
7960,-497.000000
7961,-498.500000
7962,-499.000000
7963,-498.500000
7964,-497.500000
7965,-498.500000
7966,-500.500000
7967,-499.000000
7968,-498.000000
7969,-498.000000
7970,-498.000000
7971,-499.500000
7972,-499.500000
7973,-501.000000
7974,-498.500000
7975,-501.000000
7976,-499.500000
7977,-498.000000
7978,-499.500000
7979,-499.500000
7980,-498.000000
7981,-498.500000
7982,-498.000000
7983,-499.500000
7984,-498.500000
7985,-498.500000
7986,-497.500000
7987,-497.500000
7988,-499.000000
7989,-499.000000
7990,-501.000000
7991,-500.000000
7992,-496.500000
7993,-499.500000
7994,-498.500000
7995,-496.500000
7996,-496.000000
7997,-496.500000
7998,-497.000000
7999,-499.000000
8000,-498.000000
8001,-497.500000
8002,-499.000000
8003,-499.500000
8004,-499.500000
8005,-496.500000
8006,-496.500000
8007,-497.500000
8008,-499.000000
8009,-498.000000
8010,-497.500000
8011,-497.500000
8012,-498.000000
8013,-498.500000
8014,-495.500000
8015,-497.000000
8016,-499.000000
8017,-496.500000
8018,-499.000000
8019,-499.000000
8020,-499.500000
8021,-495.000000
8022,-498.500000
8023,-500.000000
8024,-497.500000
8025,-497.500000
8026,-496.500000
8027,-497.500000
8028,-496.500000
8029,-496.500000
8030,-498.500000
8031,-496.000000
8032,-497.500000
8033,-498.000000
8034,-495.500000
8035,-496.000000
8036,-497.500000
8037,-498.000000
8038,-497.000000
8039,-495.000000
8040,-495.500000
8041,-497.000000
8042,-499.500000
8043,-495.000000
8044,-499.500000
8045,-493.500000
8046,-495.000000
8047,-498.000000
8048,-498.500000
8049,-498.500000
8050,-498.000000
8051,-496.000000
8052,-498.000000
8053,-499.000000
8054,-499.000000
8055,-496.500000
8056,-497.000000
8057,-498.500000
8058,-495.500000
8059,-498.000000
8060,-495.000000
8061,-495.500000
8062,-494.500000
8063,-496.000000
8064,-498.500000
8065,-497.500000
8066,-499.500000
8067,-496.500000
8068,-498.500000
8069,-497.000000
8070,-497.500000
8071,-496.000000
8072,-497.500000
8073,-496.000000
8074,-498.000000
8075,-497.500000
8076,-494.500000
8077,-498.000000
8078,-496.000000
8079,-495.000000
8080,-496.500000
8081,-496.500000
8082,-498.000000
8083,-497.500000
8084,-497.500000
8085,-495.000000
8086,-498.500000
8087,-498.000000
8088,-499.500000
8089,-496.500000
8090,-498.000000
8091,-496.500000
8092,-499.000000
8093,-495.000000
8094,-497.000000
8095,-495.500000
8096,-497.000000
8097,-496.000000
8098,-497.000000
8099,-498.500000
8100,-497.500000
8101,-497.000000
8102,-498.000000
8103,-498.000000
8104,-497.500000
8105,-494.500000
8106,-496.000000
8107,-497.500000
8108,-497.500000
8109,-498.000000
8110,-497.500000
8111,-496.000000
8112,-497.500000
8113,-498.500000
8114,-496.000000
8115,-496.500000
8116,-497.500000
8117,-496.500000
8118,-499.500000
8119,-496.500000
8120,-497.500000
8121,-496.500000
8122,-498.500000
8123,-496.000000
8124,-497.500000
8125,-498.000000
8126,-496.500000
8127,-498.000000
8128,-497.500000
8129,-497.000000
8130,-500.500000
8131,-497.500000
8132,-498.500000
8133,-495.500000
8134,-496.500000
8135,-496.500000
8136,-497.500000
8137,-497.500000
8138,-498.000000
8139,-496.000000
8140,-499.000000
8141,-496.500000
8142,-497.500000
8143,-497.500000
8144,-499.500000
8145,-497.500000
8146,-497.500000
8147,-496.000000
8148,-499.500000
8149,-496.500000
8150,-496.500000
8151,-499.000000
8152,-495.500000
8153,-497.500000
8154,-495.500000
8155,-497.500000
8156,-497.000000
8157,-497.500000
8158,-497.000000
8159,-495.000000
8160,-494.500000
8161,-499.000000
8162,-497.500000
8163,-496.500000
8164,-497.000000
8165,-498.000000
8166,-496.500000
8167,-498.000000
8168,-498.000000
8169,-499.500000
8170,-497.500000
8171,-498.500000
8172,-499.500000
8173,-496.500000
8174,-499.500000
8175,-499.000000
8176,-499.000000
8177,-497.000000
8178,-497.500000
8179,-498.000000
8180,-496.500000
8181,-496.500000
8182,-497.500000
8183,-498.500000
8184,-493.500000
8185,-498.500000
8186,-495.000000
8187,-498.000000
8188,-497.000000
8189,-497.000000
8190,-496.500000
8191,-498.000000
8192,-496.500000
8193,-498.500000
8194,-495.500000
8195,-494.500000
8196,-496.500000
8197,-498.000000
8198,-493.500000
8199,-498.500000
8200,-494.500000
8201,-495.500000
8202,-495.000000
8203,-495.000000
8204,-495.500000
8205,-496.000000
8206,-495.500000
8207,-495.000000
8208,-496.000000
8209,-500.000000
8210,-495.500000
8211,-499.500000
8212,-495.000000
8213,-495.000000
8214,-497.000000
8215,-495.500000
8216,-496.500000
8217,-498.500000
8218,-496.500000
8219,-497.000000
8220,-494.500000
8221,-497.000000
8222,-494.000000
8223,-497.500000
8224,-494.000000
8225,-498.000000
8226,-495.000000
8227,-494.500000
8228,-497.500000
8229,-497.000000
8230,-496.500000
8231,-497.000000
8232,-495.000000
8233,-496.000000
8234,-494.500000
8235,-498.000000
8236,-497.000000
8237,-496.500000
8238,-496.500000
8239,-496.500000
8240,-493.000000
8241,-496.000000
8242,-497.000000
8243,-496.500000
8244,-496.000000
8245,-495.000000
8246,-492.500000
8247,-499.000000
8248,-495.000000
8249,-498.000000
8250,-496.000000
8251,-496.500000
8252,-496.000000
8253,-499.000000
8254,-496.500000
8255,-496.000000
8256,-495.000000
8257,-494.500000
8258,-495.000000
8259,-495.000000
8260,-499.000000
8261,-497.000000
8262,-496.000000
8263,-496.000000
8264,-495.500000
8265,-495.500000
8266,-497.000000
8267,-497.500000
8268,-495.500000
8269,-495.500000
8270,-494.000000
8271,-495.500000
8272,-493.500000
8273,-496.500000
8274,-497.500000
8275,-498.000000
8276,-495.000000
8277,-495.500000
8278,-496.500000
8279,-496.000000
8280,-497.000000
8281,-494.500000
8282,-497.500000
8283,-495.500000
8284,-496.500000
8285,-496.000000
8286,-496.500000
8287,-497.500000
8288,-495.500000
8289,-496.000000
8290,-497.500000
8291,-497.000000
8292,-496.500000
8293,-495.000000
8294,-497.500000
8295,-499.500000
8296,-496.500000
8297,-497.000000
8298,-497.000000
8299,-495.500000
8300,-496.500000
8301,-497.000000
8302,-495.500000
8303,-495.500000
8304,-494.500000
8305,-496.000000
8306,-494.000000
8307,-494.500000
8308,-497.000000
8309,-495.000000
8310,-495.500000
8311,-495.000000
8312,-495.000000
8313,-498.500000
8314,-495.500000
8315,-496.000000
8316,-498.000000
8317,-496.500000
8318,-495.500000
8319,-495.500000
8320,-497.500000
8321,-496.000000
8322,-495.000000
8323,-497.500000
8324,-494.000000
8325,-496.500000
8326,-496.000000
8327,-494.000000
8328,-494.500000
8329,-496.500000
8330,-495.000000
8331,-495.000000
8332,-496.000000
8333,-496.000000
8334,-498.000000
8335,-496.000000
8336,-496.500000
8337,-496.500000
8338,-494.000000
8339,-495.000000
8340,-495.000000
8341,-497.500000
8342,-499.000000
8343,-497.000000
8344,-497.000000
8345,-493.500000
8346,-497.000000
8347,-495.000000
8348,-496.500000
8349,-495.000000
8350,-495.000000
8351,-496.500000
8352,-496.500000
8353,-495.500000
8354,-497.000000
8355,-497.500000
8356,-497.000000
8357,-498.000000
8358,-496.000000
8359,-495.500000
8360,-496.500000
8361,-496.500000
8362,-495.000000
8363,-497.000000
8364,-497.500000
8365,-496.500000
8366,-495.500000
8367,-496.000000
8368,-495.000000
8369,-499.500000
8370,-494.500000
8371,-497.500000
8372,-498.000000
8373,-495.000000
8374,-494.500000
8375,-498.000000
8376,-497.000000
8377,-497.000000
8378,-496.500000
8379,-495.500000
8380,-494.500000
8381,-497.000000
8382,-494.000000
8383,-495.000000
8384,-496.500000
8385,-493.000000
8386,-496.000000
8387,-497.000000
8388,-497.500000
8389,-493.500000
8390,-495.000000
8391,-493.500000
8392,-494.500000
8393,-496.000000
8394,-494.500000
8395,-495.500000
8396,-495.000000
8397,-500.000000
8398,-497.500000
8399,-499.500000
8400,-496.500000
8401,-496.500000
8402,-493.500000
8403,-495.000000
8404,-498.000000
8405,-494.500000
8406,-495.500000
8407,-499.000000
8408,-496.500000
8409,-498.000000
8410,-497.000000
8411,-495.500000
8412,-496.500000
8413,-494.500000
8414,-498.500000
8415,-497.500000
8416,-496.500000
8417,-496.000000
8418,-496.500000
8419,-497.500000
8420,-496.000000
8421,-497.000000
8422,-498.000000
8423,-498.500000
8424,-495.500000
8425,-497.500000
8426,-496.500000
8427,-495.000000
8428,-495.000000
8429,-496.500000
8430,-498.000000
8431,-497.500000
8432,-495.500000
8433,-499.000000
8434,-494.000000
8435,-495.500000
8436,-496.000000
8437,-495.500000
8438,-496.500000
8439,-498.000000
8440,-497.500000
8441,-495.500000
8442,-496.000000
8443,-496.000000
8444,-495.000000
8445,-495.500000
8446,-496.500000
8447,-494.000000
8448,-495.500000
8449,-493.000000
8450,-496.500000
8451,-493.000000
8452,-496.500000
8453,-494.500000
8454,-497.000000
8455,-496.000000
8456,-494.500000
8457,-497.500000
8458,-494.500000
8459,-495.000000
8460,-496.500000
8461,-496.000000
8462,-493.500000
8463,-496.500000
8464,-495.500000
8465,-495.000000
8466,-496.000000
8467,-496.000000
8468,-495.500000
8469,-498.000000
8470,-495.000000
8471,-495.500000
8472,-497.000000
8473,-493.500000
8474,-493.000000
8475,-496.500000
8476,-494.000000
8477,-496.000000
8478,-495.500000
8479,-496.000000
8480,-496.000000
8481,-494.000000
8482,-496.500000
8483,-495.500000
8484,-496.000000
8485,-496.500000
8486,-496.000000
8487,-494.000000
8488,-495.000000
8489,-496.000000
8490,-496.000000
8491,-496.000000
8492,-494.500000
8493,-496.000000
8494,-496.500000
8495,-494.500000
8496,-497.000000
8497,-492.000000
8498,-495.500000
8499,-497.000000
8500,-497.500000
8501,-496.500000
8502,-496.000000
8503,-495.500000
8504,-494.500000
8505,-494.500000
8506,-495.500000
8507,-496.000000
8508,-494.000000
8509,-494.500000
8510,-494.000000
8511,-496.500000
8512,-496.000000
8513,-495.000000
8514,-495.000000
8515,-493.500000
8516,-496.500000
8517,-495.500000
8518,-494.000000
8519,-494.500000
8520,-496.000000
8521,-494.000000
8522,-497.500000
8523,-498.000000
8524,-497.000000
8525,-495.000000
8526,-495.500000
8527,-495.000000
8528,-495.500000
8529,-496.500000
8530,-494.500000
8531,-495.000000
8532,-496.500000
8533,-497.000000
8534,-495.500000
8535,-494.500000
8536,-494.000000
8537,-495.500000
8538,-496.000000
8539,-495.000000
8540,-497.000000
8541,-495.500000
8542,-496.500000
8543,-497.000000
8544,-494.500000
8545,-496.500000
8546,-496.000000
8547,-496.500000
8548,-495.000000
8549,-497.000000
8550,-495.500000
8551,-494.500000
8552,-496.000000
8553,-493.500000
8554,-494.500000
8555,-495.500000
8556,-497.000000
8557,-495.500000
8558,-496.500000
8559,-494.500000
8560,-495.500000
8561,-496.000000
8562,-496.000000
8563,498.500000
8564,513.500000
8565,511.500000
8566,510.000000
8567,509.500000
8568,508.500000
8569,508.500000
8570,509.000000
8571,510.000000
8572,508.500000
8573,511.000000
8574,513.000000
8575,513.000000
8576,510.500000
8577,511.500000
8578,511.500000
8579,512.000000
8580,511.000000
8581,511.000000
8582,513.000000
8583,513.000000
8584,514.500000
8585,512.000000
8586,512.000000
8587,513.500000
8588,512.500000
8589,513.500000
8590,515.000000
8591,513.500000
8592,515.500000
8593,513.500000
8594,513.500000
8595,515.500000
8596,513.500000
8597,515.500000
8598,515.000000
8599,513.500000
8600,513.500000
8601,513.500000
8602,511.500000
8603,512.500000
8604,512.500000
8605,515.000000
8606,513.500000
8607,514.000000
8608,516.000000
8609,514.000000
8610,514.000000
8611,515.000000
8612,514.500000
8613,513.500000
8614,513.500000
8615,516.000000
8616,509.500000
8617,513.500000
8618,513.500000
8619,515.000000
8620,513.500000
8621,512.000000
8622,510.000000
8623,512.000000
8624,511.500000
8625,512.500000
8626,513.500000
8627,515.500000
8628,511.500000
8629,514.500000
8630,511.500000
8631,513.500000
8632,511.500000
8633,511.500000
8634,511.000000
8635,513.000000
8636,514.000000
8637,509.500000
8638,512.500000
8639,512.500000
8640,511.500000
8641,512.000000
8642,511.500000
8643,514.000000
8644,512.500000
8645,510.500000
8646,513.500000
8647,511.000000
8648,513.500000
8649,513.500000
8650,512.500000
8651,510.500000
8652,511.500000
8653,512.500000
8654,512.000000
8655,512.500000
8656,512.000000
8657,509.000000
8658,512.000000
8659,511.500000
8660,512.500000
8661,510.000000
8662,512.000000
8663,511.000000
8664,512.000000
8665,511.000000
8666,510.500000
8667,510.500000
8668,511.500000
8669,511.000000
8670,512.500000
8671,508.500000
8672,511.500000
8673,510.500000
8674,508.500000
8675,509.500000
8676,509.000000
8677,509.500000
8678,510.000000
8679,512.000000
8680,511.000000
8681,510.500000
8682,509.000000
8683,509.500000
8684,506.500000
8685,509.000000
8686,511.000000
8687,509.000000
8688,507.500000
8689,510.000000
8690,509.500000
8691,509.000000
8692,508.000000
8693,510.000000
8694,508.000000
8695,508.500000
8696,506.000000
8697,510.000000
8698,510.500000
8699,508.000000
8700,509.500000
8701,507.000000
8702,509.500000
8703,505.500000
8704,509.500000
8705,508.500000
8706,508.500000
8707,509.000000
8708,506.000000
8709,510.500000
8710,509.500000
8711,507.000000
8712,507.500000
8713,507.000000
8714,507.500000
8715,506.500000
8716,507.500000
8717,508.500000
8718,507.000000
8719,508.500000
8720,508.500000
8721,509.500000
8722,505.500000
8723,509.500000
8724,507.500000
8725,508.000000
8726,508.500000
8727,507.000000
8728,507.500000
8729,508.500000
8730,507.000000
8731,508.500000
8732,508.500000
8733,505.500000
8734,507.500000
8735,508.000000
8736,511.500000
8737,509.500000
8738,509.500000
8739,508.000000
8740,508.000000
8741,507.000000
8742,509.000000
8743,507.000000
8744,507.500000
8745,505.000000
8746,510.000000
8747,508.500000
8748,507.000000
8749,508.500000
8750,509.500000
8751,507.500000
8752,506.500000
8753,509.500000
8754,506.500000
8755,506.500000
8756,507.500000
8757,506.000000
8758,508.500000
8759,506.000000
8760,506.000000
8761,507.500000
8762,508.000000
8763,507.500000
8764,508.000000
8765,507.500000
8766,505.000000
8767,507.000000
8768,506.500000
8769,511.000000
8770,507.500000
8771,507.500000
8772,505.000000
8773,509.500000
8774,505.500000
8775,507.500000
8776,506.000000
8777,505.500000
8778,505.500000
8779,506.000000
8780,507.500000
8781,506.500000
8782,508.500000
8783,507.500000
8784,506.000000
8785,505.000000
8786,508.500000
8787,506.500000
8788,507.500000
8789,506.500000
8790,505.000000
8791,507.000000
8792,507.500000
8793,508.000000
8794,504.500000
8795,507.500000
8796,507.500000
8797,506.500000
8798,504.500000
8799,507.000000
8800,508.000000
8801,506.000000
8802,507.500000
8803,507.000000
8804,508.500000
8805,507.500000
8806,504.500000
8807,507.500000
8808,506.500000
8809,505.500000
8810,505.000000
8811,506.500000
8812,506.500000
8813,505.000000
8814,506.000000
8815,504.500000
8816,507.000000
8817,506.500000
8818,503.500000
8819,506.500000
8820,506.000000
8821,506.000000
8822,506.500000
8823,507.500000
8824,504.000000
8825,503.000000
8826,504.000000
8827,504.500000
8828,501.500000
8829,505.500000
8830,506.000000
8831,507.500000
8832,504.000000
8833,506.000000
8834,504.500000
8835,506.500000
8836,504.500000
8837,506.500000
8838,504.500000
8839,503.500000
8840,505.000000
8841,504.500000
8842,504.000000
8843,504.500000
8844,507.000000
8845,505.000000
8846,503.500000
8847,505.500000
8848,507.500000
8849,507.500000
8850,506.000000
8851,505.500000
8852,505.500000
8853,505.500000
8854,505.500000
8855,506.000000
8856,503.500000
8857,508.500000
8858,508.500000
8859,505.500000
8860,504.000000
8861,504.500000
8862,505.000000
8863,503.500000
8864,505.500000
8865,505.500000
8866,506.500000
8867,506.000000
8868,505.000000
8869,505.500000
8870,507.000000
8871,505.500000
8872,505.500000
8873,504.500000
8874,503.500000
8875,503.000000
8876,506.500000
8877,509.000000
8878,505.000000
8879,507.500000
8880,507.500000
8881,507.500000
8882,504.500000
8883,504.000000
8884,507.000000
8885,509.000000
8886,506.500000
8887,508.500000
8888,508.000000
8889,503.500000
8890,507.000000
8891,504.500000
8892,505.000000
8893,504.000000
8894,506.000000
8895,504.500000
8896,503.500000
8897,505.000000
8898,506.000000
8899,505.000000
8900,505.500000
8901,505.000000
8902,506.500000
8903,506.500000
8904,504.500000
8905,503.500000
8906,504.500000
8907,503.000000
8908,504.500000
8909,503.500000
8910,505.500000
8911,504.000000
8912,504.500000
8913,503.000000
8914,504.000000
8915,502.000000
8916,503.500000
8917,502.000000
8918,505.000000
8919,505.500000
8920,505.500000
8921,503.500000
8922,503.500000
8923,503.000000
8924,504.500000
8925,504.500000
8926,503.500000
8927,504.000000
8928,504.500000
8929,505.500000
8930,505.000000
8931,504.000000
8932,504.000000
8933,504.000000
8934,503.500000
8935,507.500000
8936,504.500000
8937,504.500000
8938,506.000000
8939,503.500000
8940,505.500000
8941,503.500000
8942,505.500000
8943,501.500000
8944,505.500000
8945,503.000000
8946,505.500000
8947,504.500000
8948,504.000000
8949,504.000000
8950,504.000000
8951,504.500000
8952,506.500000
8953,502.500000
8954,506.000000
8955,503.500000
8956,502.500000
8957,504.000000
8958,505.500000
8959,505.500000
8960,507.000000
8961,502.000000
8962,503.500000
8963,505.500000
8964,504.000000
8965,504.500000
8966,505.000000
8967,503.500000
8968,504.500000
8969,501.500000
8970,506.500000
8971,505.000000
8972,503.500000
8973,503.500000
8974,506.000000
8975,503.000000
8976,503.000000
8977,503.500000
8978,505.500000
8979,503.000000
8980,504.000000
8981,505.000000
8982,505.000000
8983,505.000000
8984,504.000000
8985,503.500000
8986,502.500000
8987,504.000000
8988,502.000000
8989,505.500000
8990,503.500000
8991,504.500000
8992,501.500000
8993,502.000000
8994,505.500000
8995,504.500000
8996,506.000000
8997,502.500000
8998,505.000000
8999,504.500000
9000,503.000000
9001,503.000000
9002,505.500000
9003,505.000000
9004,504.500000
9005,504.500000
9006,503.000000
9007,505.500000
9008,503.000000
9009,503.500000
9010,504.500000
9011,503.500000
9012,503.500000
9013,504.500000
9014,503.500000
9015,504.000000
9016,505.500000
9017,503.500000
9018,503.000000
9019,505.000000
9020,505.500000
9021,503.500000
9022,503.000000
9023,507.000000
9024,504.000000
9025,505.000000
9026,505.500000
9027,502.500000
9028,502.500000
9029,503.500000
9030,504.000000
9031,503.500000
9032,505.000000
9033,503.500000
9034,504.500000
9035,503.500000
9036,503.000000
9037,505.500000
9038,504.000000
9039,503.000000
9040,503.000000
9041,502.000000
9042,502.000000
9043,505.000000
9044,502.000000
9045,504.500000
9046,506.000000
9047,504.000000
9048,503.500000
9049,501.000000
9050,503.500000
9051,504.000000
9052,504.000000
9053,503.000000
9054,502.500000
9055,505.500000
9056,503.000000
9057,504.500000
9058,504.500000
9059,505.000000
9060,501.500000
9061,503.500000
9062,502.000000
9063,503.000000
9064,501.000000
9065,505.000000
9066,501.500000
9067,504.000000
9068,503.000000
9069,505.500000
9070,501.500000
9071,503.500000
9072,503.500000
9073,504.000000
9074,503.500000
9075,503.000000
9076,504.000000
9077,503.000000
9078,505.000000
9079,503.500000
9080,503.000000
9081,502.500000
9082,502.500000
9083,502.500000
9084,504.000000
9085,502.000000
9086,506.500000
9087,504.500000
9088,503.500000
9089,504.000000
9090,502.500000
9091,504.000000
9092,501.500000
9093,502.500000
9094,502.500000
9095,502.500000
9096,501.000000
9097,505.000000
9098,501.500000
9099,503.500000
9100,501.500000
9101,500.500000
9102,502.500000
9103,501.000000
9104,501.000000
9105,500.500000
9106,503.500000
9107,501.000000
9108,502.000000
9109,502.500000
9110,502.500000
9111,501.000000
9112,505.000000
9113,502.500000
9114,503.000000
9115,503.000000
9116,502.000000
9117,504.000000
9118,502.000000
9119,505.000000
9120,500.000000
9121,503.500000
9122,504.000000
9123,502.500000
9124,503.500000
9125,503.000000
9126,503.500000
9127,501.000000
9128,502.500000
9129,503.000000
9130,503.500000
9131,502.500000
9132,501.000000
9133,502.500000
9134,504.500000
9135,504.500000
9136,504.000000
9137,501.500000
9138,505.000000
9139,504.000000
9140,505.500000
9141,503.500000
9142,503.500000
9143,503.500000
9144,504.000000
9145,505.500000
9146,505.500000
9147,503.000000
9148,503.500000
9149,504.000000
9150,503.000000
9151,505.000000
9152,503.000000
9153,501.500000
9154,503.500000
9155,502.500000
9156,504.000000
9157,503.000000
9158,502.500000
9159,504.000000
9160,502.000000
9161,505.000000
9162,503.500000
9163,502.000000
9164,503.500000
9165,501.000000
9166,503.000000
9167,504.500000
9168,502.500000
9169,502.000000
9170,503.500000
9171,501.500000
9172,505.000000
9173,503.500000
9174,501.500000
9175,504.500000
9176,503.500000
9177,504.000000
9178,503.000000
9179,504.500000
9180,504.000000
9181,502.500000
9182,504.000000
9183,503.000000
9184,502.500000
9185,502.500000
9186,501.000000
9187,503.000000
9188,502.500000
9189,505.000000
9190,504.000000
9191,503.000000
9192,502.500000
9193,503.000000
9194,504.000000
9195,502.500000
9196,501.500000
9197,501.500000
9198,500.000000
9199,501.500000
9200,501.500000
9201,502.000000
9202,503.500000
9203,501.500000
9204,502.500000
9205,504.500000
9206,501.500000
9207,504.500000
9208,502.000000
9209,503.000000
9210,502.000000
9211,502.500000
9212,501.500000
9213,501.000000
9214,503.500000
9215,503.000000
9216,503.500000
9217,502.500000
9218,503.000000
9219,502.500000
9220,502.000000
9221,503.500000
9222,504.000000
9223,503.500000
9224,503.500000
9225,503.000000
9226,502.000000
9227,501.000000
9228,504.000000
9229,504.000000
9230,504.000000
9231,501.000000
9232,501.000000
9233,502.500000
9234,501.500000
9235,503.000000
9236,499.500000
9237,502.000000
9238,503.000000
9239,502.000000
9240,501.000000
9241,502.000000
9242,505.000000
9243,505.000000
9244,502.500000
9245,505.000000
9246,502.000000
9247,502.000000
9248,501.500000
9249,501.000000
9250,501.500000
9251,503.500000
9252,501.000000
9253,504.000000
9254,505.000000
9255,503.500000
9256,501.500000
9257,503.000000
9258,502.000000
9259,501.500000
9260,504.000000
9261,502.500000
9262,501.000000
9263,501.500000
9264,503.500000
9265,500.000000
9266,504.500000
9267,503.000000
9268,503.500000
9269,502.000000
9270,503.500000
9271,502.500000
9272,503.000000
9273,501.000000
9274,504.500000
9275,502.000000
9276,501.500000
9277,502.500000
9278,501.000000
9279,503.500000
9280,501.500000
9281,502.500000
9282,505.000000
9283,502.500000
9284,501.500000
9285,504.000000
9286,503.000000
9287,503.000000
9288,505.000000
9289,503.000000
9290,504.000000
9291,501.500000
9292,503.000000
9293,503.000000
9294,505.000000
9295,503.000000
9296,504.000000
9297,499.500000
9298,505.000000
9299,505.500000
9300,502.500000
9301,501.500000
9302,503.500000
9303,503.500000
9304,501.000000
9305,502.000000
9306,501.000000
9307,502.000000
9308,502.500000
9309,505.500000
9310,502.500000
9311,502.500000
9312,500.500000
9313,502.000000
9314,503.000000
9315,502.000000
9316,502.500000
9317,501.500000
9318,502.000000
9319,503.500000
9320,501.500000
9321,503.000000
9322,500.000000
9323,500.500000
9324,504.500000
9325,501.500000
9326,502.500000
9327,503.000000
9328,502.500000
9329,500.500000
9330,503.000000
9331,502.500000
9332,505.000000
9333,504.000000
9334,502.000000
9335,502.500000
9336,502.500000
9337,502.000000
9338,502.500000
9339,502.500000
9340,501.500000
9341,500.500000
9342,503.000000
9343,503.000000
9344,501.500000
9345,500.500000
9346,502.500000
9347,501.000000
9348,502.000000
9349,500.500000
9350,500.500000
9351,500.000000
9352,502.000000
9353,501.500000
9354,502.500000
9355,501.500000
9356,502.000000
9357,502.000000
9358,501.500000
9359,501.000000
9360,503.500000
9361,499.000000
9362,501.500000
9363,502.000000
9364,501.500000
9365,501.500000
9366,503.000000
9367,502.500000
9368,502.500000
9369,504.500000
9370,502.500000
9371,501.500000
9372,503.500000
9373,503.000000
9374,502.500000
9375,504.000000
9376,507.000000
9377,504.500000
9378,502.500000
9379,503.000000
9380,503.000000
9381,503.500000
9382,503.500000
9383,503.500000
9384,503.000000
9385,503.500000
9386,501.500000
9387,503.500000
9388,501.000000
9389,503.000000
9390,500.000000
9391,502.500000
9392,504.000000
9393,503.500000
9394,504.000000
9395,503.500000
9396,502.500000
9397,502.000000
9398,504.000000
9399,501.000000
9400,501.500000
9401,506.000000
9402,505.000000
9403,501.500000
9404,503.000000
9405,502.500000
9406,503.000000
9407,503.500000
9408,503.000000
9409,501.000000
9410,502.500000
9411,505.500000
9412,503.500000
9413,503.500000
9414,501.500000
9415,504.500000
9416,502.500000
9417,502.500000
9418,501.500000
9419,504.000000
9420,499.500000
9421,501.000000
9422,501.500000
9423,501.500000
9424,502.000000
9425,501.500000
9426,503.500000
9427,499.500000
9428,502.000000
9429,501.500000
9430,502.500000
9431,503.500000
9432,502.000000
9433,502.500000
9434,500.000000
9435,504.500000
9436,501.500000
9437,502.500000
9438,502.000000
9439,503.500000
9440,502.000000
9441,503.000000
9442,503.500000
9443,503.000000
9444,504.500000
9445,503.000000
9446,503.500000
9447,504.500000
9448,502.000000
9449,503.000000
9450,501.500000
9451,503.000000
9452,502.000000
9453,502.500000
9454,502.500000
9455,502.000000
9456,-511.500000
9457,-505.500000
9458,-506.000000
9459,-502.000000
9460,-503.000000
9461,-502.500000
9462,-503.000000
9463,-504.000000
9464,-504.000000
9465,-505.500000
9466,-505.000000
9467,-505.000000
9468,-506.500000
9469,-506.000000
9470,-504.000000
9471,-506.500000
9472,-505.500000
9473,-503.000000
9474,-505.500000
9475,-505.500000
9476,-509.000000
9477,-506.500000
9478,-506.500000
9479,-508.500000
9480,-509.000000
9481,-508.000000
9482,-511.000000
9483,-509.000000
9484,-505.500000
9485,-507.500000
9486,-508.000000
9487,-509.500000
9488,-507.000000
9489,-506.500000
9490,-505.500000
9491,-505.500000
9492,-508.000000
9493,-508.500000
9494,-507.500000
9495,-510.500000
9496,-507.000000
9497,-507.000000
9498,-508.500000
9499,-506.500000
9500,-505.500000
9501,-508.500000
9502,-504.500000
9503,-506.000000
9504,-506.500000
9505,-505.500000
9506,-508.500000
9507,-506.000000
9508,-507.000000
9509,-506.000000
9510,-507.000000
9511,-505.500000
9512,-508.000000
9513,-503.000000
9514,-506.000000
9515,-504.500000
9516,-505.500000
9517,-507.500000
9518,-504.000000
9519,-506.500000
9520,-504.500000
9521,-508.000000
9522,-506.000000
9523,-506.500000
9524,-505.000000
9525,-506.000000
9526,-503.500000
9527,-506.500000
9528,-505.000000
9529,-505.500000
9530,-504.500000
9531,-506.500000
9532,-507.000000
9533,-504.000000
9534,-506.500000
9535,-505.000000
9536,-504.000000
9537,-504.000000
9538,-505.500000
9539,-505.000000
9540,-508.000000
9541,-505.000000
9542,-504.500000
9543,-504.000000
9544,-506.500000
9545,-504.500000
9546,-505.500000
9547,-504.500000
9548,-504.500000
9549,-504.500000
9550,-503.500000
9551,-503.000000
9552,-506.000000
9553,-505.500000
9554,-504.500000
9555,-502.500000
9556,-504.000000
9557,-506.000000
9558,-505.000000
9559,-505.000000
9560,-503.500000
9561,-508.500000
9562,-502.500000
9563,-503.000000
9564,-503.000000
9565,-505.000000
9566,-501.000000
9567,-504.500000
9568,-502.500000
9569,-504.000000
9570,-502.500000
9571,-504.000000
9572,-502.500000
9573,-502.500000
9574,-506.500000
9575,-500.500000
9576,-505.500000
9577,-503.500000
9578,-503.000000
9579,-503.500000
9580,-501.000000
9581,-502.500000
9582,-503.000000
9583,-501.000000
9584,-503.500000
9585,-503.000000
9586,-502.500000
9587,-503.000000
9588,-501.000000
9589,-503.500000
9590,-503.500000
9591,-504.000000
9592,-502.500000
9593,-501.500000
9594,-504.000000
9595,-503.500000
9596,-503.500000
9597,-504.500000
9598,-499.500000
9599,-502.000000
9600,-501.000000
9601,-503.500000
9602,-502.500000
9603,-500.000000
9604,-501.000000
9605,-502.500000
9606,-502.500000
9607,-502.000000
9608,-502.000000
9609,-503.500000
9610,-502.500000
9611,-499.500000
9612,-501.500000
9613,-499.000000
9614,-501.000000
9615,-502.000000
9616,-501.000000
9617,-501.000000
9618,-500.500000
9619,-499.500000
9620,-503.000000
9621,-502.500000
9622,-503.000000
9623,-502.000000
9624,-501.500000
9625,-501.500000
9626,-499.000000
9627,-502.500000
9628,-500.000000
9629,-502.500000
9630,-499.000000
9631,-502.000000
9632,-499.500000
9633,-502.000000
9634,-501.000000
9635,-501.000000
9636,-499.500000
9637,-499.500000
9638,-500.500000
9639,-501.000000
9640,-500.000000
9641,-502.000000
9642,-499.500000
9643,-499.500000
9644,-499.000000
9645,-501.000000
9646,-501.500000
9647,-503.500000
9648,-498.500000
9649,-499.000000
9650,-500.500000
9651,-499.500000
9652,-499.500000
9653,-500.500000
9654,-501.500000
9655,-500.000000
9656,-499.500000
9657,-500.500000
9658,-501.000000
9659,-499.500000
9660,-500.000000
9661,-502.000000
9662,-500.500000
9663,-498.000000
9664,-503.000000
9665,-500.000000
9666,-499.000000
9667,-501.500000
9668,-499.000000
9669,-497.500000
9670,-498.000000
9671,-502.500000
9672,-499.000000
9673,-500.500000
9674,-498.500000
9675,-502.000000
9676,-500.000000
9677,-499.000000
9678,-500.500000
9679,-499.000000
9680,-499.000000
9681,-497.000000
9682,-502.000000
9683,-497.500000
9684,-500.500000
9685,-498.500000
9686,-499.500000
9687,-500.500000
9688,-500.000000
9689,-500.500000
9690,-500.500000
9691,-499.000000
9692,-500.000000
9693,-500.000000
9694,-501.500000
9695,-501.000000
9696,-502.000000
9697,-501.000000
9698,-499.500000
9699,-499.000000
9700,-502.500000
9701,-502.000000
9702,-500.500000
9703,-499.000000
9704,-500.500000
9705,-500.000000
9706,-500.500000
9707,-500.500000
9708,-500.000000
9709,-501.000000
9710,-499.500000
9711,-501.000000
9712,-500.000000
9713,-500.000000
9714,-499.500000
9715,-499.500000
9716,-501.500000
9717,-497.500000
9718,-500.000000
9719,-500.000000
9720,-500.500000
9721,-497.500000
9722,-499.500000
9723,-498.500000
9724,-497.500000
9725,-497.500000
9726,-501.500000
9727,-499.500000
9728,-499.500000
9729,-498.500000
9730,-497.500000
9731,-498.000000
9732,-499.000000
9733,-499.500000
9734,-500.500000
9735,-499.500000
9736,-500.500000
9737,-501.000000
9738,-499.000000
9739,-498.000000
9740,-499.000000
9741,-497.500000
9742,-497.500000
9743,-499.500000
9744,-499.500000
9745,-498.000000
9746,-500.500000
9747,-499.500000
9748,-498.000000
9749,-500.000000
9750,-499.500000
9751,-499.000000
9752,-500.500000
9753,-499.500000
9754,-498.500000
9755,-498.500000
9756,-500.500000
9757,-500.500000
9758,-500.500000
9759,-500.500000
9760,-499.500000
9761,-498.000000
9762,-497.500000
9763,-498.500000
9764,-498.500000
9765,-499.000000
9766,-497.000000
9767,-498.500000
9768,-497.500000
9769,-497.000000
9770,-498.000000
9771,-497.500000
9772,-498.000000
9773,-499.000000
9774,-499.500000
9775,-498.000000
9776,-497.000000
9777,-498.500000
9778,-498.500000
9779,-501.000000
9780,-498.000000
9781,-499.000000
9782,-499.000000
9783,-497.500000
9784,-497.500000
9785,-497.500000
9786,-500.000000
9787,-498.500000
9788,-499.000000
9789,-499.500000
9790,-497.500000
9791,-498.000000
9792,-496.000000
9793,-497.000000
9794,-500.500000
9795,-496.500000
9796,-498.000000
9797,-499.500000
9798,-496.500000
9799,-498.000000
9800,-497.500000
9801,-498.000000
9802,-499.500000
9803,-499.500000
9804,-499.000000
9805,-500.500000
9806,-498.500000
9807,-499.000000
9808,-499.000000
9809,-499.000000
9810,-498.500000
9811,-497.000000
9812,-499.500000
9813,-497.000000
9814,-496.500000
9815,-498.500000
9816,-496.500000
9817,-497.500000
9818,-497.000000
9819,-497.500000
9820,-498.000000
9821,-497.500000
9822,-496.500000
9823,-497.500000
9824,-495.500000
9825,-498.500000
9826,-498.500000
9827,-496.500000
9828,-498.000000
9829,-498.000000
9830,-497.500000
9831,-497.500000
9832,-496.500000
9833,-498.500000
9834,-499.000000
9835,-499.000000
9836,-496.500000
9837,-496.500000
9838,-496.000000
9839,-498.500000
9840,-499.000000
9841,-498.500000
9842,-495.000000
9843,-498.000000
9844,-497.000000
9845,-498.000000
9846,-495.500000
9847,-496.000000
9848,-496.000000
9849,-496.500000
9850,-496.500000
9851,-497.000000
9852,-496.000000
9853,-497.000000
9854,-496.000000
9855,-496.000000
9856,-497.500000
9857,-496.000000
9858,-497.000000
9859,-496.500000
9860,-496.500000
9861,-497.500000
9862,-494.500000
9863,-497.000000
9864,-497.500000
9865,-495.500000
9866,-500.000000
9867,-497.500000
9868,-495.500000
9869,-496.000000
9870,-498.500000
9871,-498.000000
9872,-496.500000
9873,-497.500000
9874,-497.000000
9875,-497.000000
9876,-496.000000
9877,-498.500000
9878,-498.000000
9879,-499.000000
9880,-497.500000
9881,-499.000000
9882,-497.500000
9883,-498.000000
9884,-496.000000
9885,-497.000000
9886,-497.000000
9887,-500.000000
9888,-496.000000
9889,-496.500000
9890,-497.500000
9891,-497.500000
9892,-497.500000
9893,-498.500000
9894,-500.000000
9895,-496.000000
9896,-498.500000
9897,-498.500000
9898,-498.500000
9899,-498.500000
9900,-497.000000
9901,-498.500000
9902,-497.500000
9903,-498.500000
9904,-496.500000
9905,-496.500000
9906,-497.000000
9907,-498.000000
9908,-498.500000
9909,-499.500000
9910,-496.500000
9911,-496.500000
9912,-496.500000
9913,-499.500000
9914,-498.500000
9915,-496.500000
9916,-497.000000
9917,-498.000000
9918,-498.000000
9919,-499.000000
9920,-497.000000
9921,-496.500000
9922,-499.000000
9923,-495.500000
9924,-497.500000
9925,-499.500000
9926,-497.500000
9927,-498.500000
9928,-499.000000
9929,-500.000000
9930,-497.500000
9931,-497.000000
9932,-498.000000
9933,-494.500000
9934,-498.000000
9935,-498.500000
9936,-498.500000
9937,-496.500000
9938,-496.500000
9939,-497.500000
9940,-497.000000
9941,-497.000000
9942,-495.500000
9943,-497.000000
9944,-498.500000
9945,-499.000000
9946,-497.000000
9947,-494.000000
9948,-496.500000
9949,-496.500000
9950,-496.500000
9951,-498.000000
9952,-498.500000
9953,-497.000000
9954,-496.000000
9955,-497.000000
9956,-499.500000
9957,-498.000000
9958,-495.500000
9959,-496.000000
9960,-498.500000
9961,-497.500000
9962,-498.000000
9963,-497.500000
9964,-496.500000
9965,-496.000000
9966,-495.500000
9967,-495.500000
9968,-496.500000
9969,-497.000000
9970,-496.500000
9971,-497.500000
9972,-496.500000
9973,-495.500000
9974,-495.000000
9975,-494.500000
9976,-495.500000
9977,-497.500000
9978,-496.000000
9979,-497.500000
9980,-496.000000
9981,-498.000000
9982,-497.000000
9983,-493.500000
9984,-496.500000
9985,-495.000000
9986,-496.000000
9987,-496.500000
9988,-496.000000
9989,-495.000000
9990,-496.500000
9991,-496.500000
9992,-493.500000
9993,-498.500000
9994,-496.000000
9995,-497.000000
9996,-496.000000
9997,-496.500000
9998,-494.000000
9999,-494.000000
10000,-495.500000
